#Wave		#Intensity
5504.711914	1855.466675
5503.824219	1849.877930
5502.936523	1905.439453
5502.048828	1877.179199
5501.160156	1843.342651
5500.272461	1820.687500
5499.383789	1870.631836
5498.496094	1884.269165
5497.607422	1878.364746
5496.718750	1914.320435
5495.830078	1866.561523
5494.940430	2000.142822
5494.051758	1877.079102
5493.162109	1848.871338
5492.272461	1934.988037
5491.382813	1976.472168
5490.493164	1970.559326
5489.603516	1928.421021
5488.712891	1889.083252
5487.823242	1849.758789
5486.932617	1927.430664
5486.041992	1924.315796
5485.151367	1926.770630
5484.260742	1923.656738
5483.369141	1945.594482
5482.478516	1909.083374
5481.586914	1939.363281
5480.695313	1897.301636
5479.803711	1863.598755
5478.912109	1943.928955
5478.020508	1924.132202
5477.127930	1965.503540
5476.236328	1956.828125
5475.343750	1939.818237
5474.451172	2008.951660
5473.558594	1966.935181
5472.666016	1894.378418
5471.772461	2002.364868
5470.879883	1943.710449
5469.986328	2001.678589
5469.092773	1954.147339
5468.199219	1981.565552
5467.305664	2058.921143
5466.411133	2080.762939
5465.517578	1974.999146
5464.623047	1902.552124
5463.728516	1996.505493
5462.833984	1904.672363
5461.939453	1954.241455
5461.044922	1953.906372
5460.150391	1992.365723
5459.254883	1969.859741
5458.359375	1975.062134
5457.463867	2055.041992
5456.568359	1971.615845
5455.672852	2082.023682
5454.777344	1940.489746
5453.880859	1934.621582
5452.984375	1995.168701
5452.087891	1933.958008
5451.191406	1997.250732
5450.294922	1996.908081
5449.398438	2010.392212
5448.500977	1996.223022
5447.604492	1929.535522
5446.707031	1978.954834
5445.809570	1945.454102
5444.912109	2086.031006
5444.013672	1972.411499
5443.116211	2057.695313
5442.217773	1968.973145
5441.320313	2051.467041
5440.421875	2067.678467
5439.523438	2031.442261
5438.624023	2232.547119
5437.725586	2066.614014
5436.826172	2035.913818
5435.927734	1969.367188
5435.028320	2095.885254
5434.128906	1976.962891
5433.229492	1990.407593
5432.329102	1987.309570
5431.429688	2113.737549
5430.529297	2091.331543
5429.628906	2179.129395
5428.728516	2030.015991
5427.828125	2106.778320
5426.927734	2120.183838
5426.026367	2152.855957
5425.125977	2058.899902
5424.224609	2146.612549
5423.323242	1994.906128
5422.421875	2077.097168
5421.520508	2071.239014
5420.618164	2043.381470
5419.716797	2026.532227
5418.814453	2078.419434
5417.912109	2064.318604
5417.009766	2077.705566
5416.107422	2113.070068
5415.205078	2074.244141
5414.301758	2093.115967
5413.399414	2035.081909
5412.496094	2040.224121
5411.592773	2100.273438
5410.689453	1951.683472
5409.785156	2187.375977
5408.881836	2123.887207
5407.977539	2101.573486
5407.073242	2071.038330
5406.168945	2056.969238
5405.264648	2149.848877
5404.360352	2116.579102
5403.456055	2154.592285
5402.550781	2066.518066
5401.645508	2090.825195
5400.740234	2205.537354
5399.834961	2216.115234
5398.929688	2139.046387
5398.024414	2108.556152
5397.118164	2168.427734
5396.212891	2140.680420
5395.306641	2140.312256
5394.400391	2265.823242
5393.493164	2183.352539
5392.586914	2141.943604
5391.680664	2089.608398
5390.773438	2050.964355
5389.866211	2157.243408
5388.958984	2211.545898
5388.051758	2241.230713
5387.144531	2243.577881
5386.236328	2254.120850
5385.329102	2169.047363
5384.420898	2247.882568
5383.512695	2252.957520
5382.604492	2301.716797
5381.696289	2178.474365
5380.787109	2290.006836
5379.878906	2147.705811
5378.969727	2133.693604
5378.060547	2179.702881
5377.151367	2236.606689
5376.242188	2252.584229
5375.332031	2224.930176
5374.422852	2224.547119
5373.512695	2215.987061
5372.602539	2251.033447
5371.692383	2283.343018
5370.782227	2217.566895
5369.872070	2203.566162
5368.960938	2246.760254
5368.050781	2153.795410
5367.139648	2259.598389
5366.228516	2182.994873
5365.317383	2277.870361
5364.405273	2201.290039
5363.494141	2263.483154
5362.582031	2320.214600
5361.669922	2243.666260
5360.757813	2224.245850
5359.845703	2253.767822
5358.933594	2345.798096
5358.021484	2282.886230
5357.108398	2187.389160
5356.195313	2241.347900
5355.282227	2333.316406
5354.369141	2327.482666
5353.456055	2215.750977
5352.542969	2288.671875
5351.628906	2309.992920
5350.714844	2317.736816
5349.801758	2314.623779
5348.887695	2208.416016
5347.972656	2346.376709
5347.058594	2297.154297
5346.143555	2275.065186
5345.229492	2323.474121
5344.314453	2366.444824
5343.399414	2287.439941
5342.484375	2384.597168
5341.568359	2316.453369
5340.653320	2318.762695
5339.737305	2318.363037
5338.821289	2385.660645
5337.905273	2263.414795
5336.989258	2428.149414
5336.073242	2308.644531
5335.157227	2332.600586
5334.240234	2356.548340
5333.323242	2312.860352
5332.406250	2355.735352
5331.489258	2320.174805
5330.572266	2376.552246
5329.654297	2289.638672
5328.737305	2354.110107
5327.819336	2483.414307
5326.901367	2361.403320
5325.983398	2377.204102
5325.065430	2452.418945
5324.146484	2387.185303
5323.228516	2421.873047
5322.309570	2413.356445
5321.390625	2464.221680
5320.471680	2417.920654
5319.552734	2409.408936
5318.632813	2489.922119
5317.713867	2478.703613
5316.793945	2386.587646
5315.874023	2356.516846
5314.954102	2393.850830
5314.034180	2495.859375
5313.114258	2463.090332
5312.193359	2373.750488
5311.272461	2397.585693
5310.352539	2440.266846
5309.431641	2620.275391
5308.509766	2493.274414
5307.588867	2492.843750
5306.667969	2492.413330
5305.746094	2524.276367
5304.824219	2435.048340
5303.902344	2442.698242
5302.980469	2531.037598
5302.058594	2506.396729
5301.135742	2535.540527
5300.213867	2535.102539
5299.291016	2478.219238
5298.368164	2561.100586
5297.445313	2463.927979
5296.521484	2530.664307
5295.598633	2557.086914
5294.674805	2559.330566
5293.750977	2577.683838
5292.827148	2510.122803
5291.903320	2485.531494
5290.979492	2613.919189
5290.055664	2524.920654
5289.130859	2545.946289
5288.206055	2507.953857
5287.281250	2453.883545
5286.356445	2590.209473
5285.431641	2501.291504
5284.506836	2484.776367
5283.581055	2688.025635
5282.655273	2548.225586
5281.729492	2625.477539
5280.803711	2568.772949
5279.877930	2554.937988
5278.952148	2605.371826
5278.025391	2572.794678
5277.098633	2636.591553
5276.171875	2622.754150
5275.245117	2595.542236
5274.318359	2579.041016
5273.391602	2578.594727
5272.463867	2703.846924
5271.536133	2575.028564
5270.609375	2638.747070
5269.680664	2632.944580
5268.752930	2709.993652
5267.825195	2648.065918
5266.896484	2687.682373
5265.968750	2687.217285
5265.040039	2627.996094
5264.111328	2579.476563
5263.182617	2584.369629
5262.252930	2693.365234
5261.324219	2546.110596
5260.394531	2625.722412
5259.464844	2766.669434
5258.535156	2686.165527
5257.605469	2659.030273
5256.675781	2741.233398
5255.745117	2687.436768
5254.814453	2591.008057
5253.883789	2745.140137
5252.953125	2797.958984
5252.022461	2613.640381
5251.091797	2669.127686
5250.160156	2631.378418
5249.229492	2716.134766
5248.297852	2750.275635
5247.366211	2696.560059
5246.434570	2661.493652
5245.501953	2642.405273
5244.570313	2628.644531
5243.637695	2806.416504
5242.705078	2803.270752
5241.772461	2643.233643
5240.839844	2786.346924
5239.907227	2557.252930
5238.973633	2724.251709
5238.041016	2710.492676
5237.107422	2757.846924
5236.173828	2672.363281
5235.240234	2730.331299
5234.305664	2708.614014
5233.372070	2726.729736
5232.437500	2734.220947
5231.502930	2855.836426
5230.568359	2762.463135
5229.633789	2738.105469
5228.699219	2854.351318
5227.764648	2771.635498
5226.829102	2792.369629
5225.893555	2871.426270
5224.958008	2714.524902
5224.022461	2793.567383
5223.086914	2726.833252
5222.150391	2734.309082
5221.213867	2741.781982
5220.278320	2841.953369
5219.341797	2841.460205
5218.405273	2833.024414
5217.467773	2827.238281
5216.531250	2855.862305
5215.593750	2842.135254
5214.656250	2778.141602
5213.718750	2769.723389
5212.781250	2898.844482
5211.843750	2861.318848
5210.905273	2752.417725
5209.967773	2950.206543
5209.029297	2791.108887
5208.090820	2851.405029
5207.152344	2909.038086
5206.212891	2903.249512
5205.274414	2857.844238
5204.334961	2904.882568
5203.396484	2811.966064
5202.457031	2861.635742
5201.516602	2808.350342
5200.577148	2894.948730
5199.637695	2965.685791
5198.697266	2936.152344
5197.756836	2838.051514
5196.816406	2911.398438
5195.875977	2950.442871
5194.935547	2955.202881
5193.994141	2812.358398
5193.053711	2888.293701
5192.112305	2856.173828
5191.170898	2860.946533
5190.229492	2870.985352
5189.287109	2949.490723
5188.345703	2877.886719
5187.403320	3016.912354
5186.460938	2969.010498
5185.518555	2992.179199
5184.576172	2991.659424
5183.633789	2941.155518
5182.690430	2945.905029
5181.748047	2987.469971
5180.804688	2939.622314
5179.861328	2994.318359
5178.917969	3109.449463
5177.973633	3009.045410
5177.030273	3142.526367
5176.085938	2902.916260
5175.141602	3107.287842
5174.197266	3054.224365
5173.252930	2888.273926
5172.308594	2961.278809
5171.363281	3002.760498
5170.418945	2986.492188
5169.473633	3035.826660
5168.528320	3032.675293
5167.582031	2984.934326
5166.636719	2910.985107
5165.691406	3104.510498
5164.745117	2975.512451
5163.798828	3106.051758
5162.852539	3045.235840
5161.906250	3146.894775
5160.958984	3041.556396
5160.012695	3187.708984
5159.065430	3024.784912
5158.118164	3210.165527
5157.170898	3023.732422
5156.223633	2965.621338
5155.276367	3106.425537
5154.328125	3160.833008
5153.379883	3005.931396
5152.432617	3034.180664
5151.484375	3114.724121
5150.535156	3064.501465
5149.586914	3024.753418
5148.637695	3094.801025
5147.689453	3190.957764
5146.740234	3145.982422
5145.791016	3108.859863
5144.840820	3189.291504
5143.891602	3055.545654
5142.941406	3086.347168
5141.992188	3153.687012
5141.041992	3095.713135
5140.091797	3100.393555
5139.140625	3149.430176
5138.190430	3146.272949
5137.239258	3132.682861
5136.289063	3139.960938
5135.337891	3264.573486
5134.386719	3222.292236
5133.434570	3302.534668
5132.483398	3265.473633
5131.531250	3324.835205
5130.579102	3256.520264
5129.627930	3266.371826
5128.674805	3234.550781
5127.722656	3168.890869
5126.770508	3314.129150
5125.817383	3352.595703
5124.864258	3357.216309
5123.911133	3208.314941
5122.958008	3215.560547
5122.004883	3334.652100
5121.050781	3274.255127
5120.097656	3208.678711
5119.143555	3262.714600
5118.189453	3386.913086
5117.235352	3191.407471
5116.280273	3281.795410
5115.326172	3304.604980
5114.371094	3337.796143
5113.416016	3352.796387
5112.460938	3341.825439
5111.505859	3330.857910
5110.550781	3208.279297
5109.594727	3228.481689
5108.639648	3347.278809
5107.683594	3204.006348
5106.727539	3405.770508
5105.770508	3197.701660
5104.814453	3368.280518
5103.857422	3346.952637
5102.901367	3351.552734
5101.944336	3353.559570
5100.987305	3303.742188
5100.030273	3393.840820
5099.072266	3522.761719
5098.115234	3387.476563
5097.157227	3472.334473
5096.199219	3448.428223
5095.241211	3421.941650
5094.282227	3517.100586
5093.324219	3397.458984
5092.365234	3440.846680
5091.407227	3352.299805
5090.448242	3535.334717
5089.489258	3376.986816
5088.529297	3487.564941
5087.570313	3437.843994
5086.610352	3339.036621
5085.650391	3477.986572
5084.690430	3521.298340
5083.730469	3574.927246
5082.770508	3437.425781
5081.809570	3454.900146
5080.849609	3521.420654
5079.888672	3575.011475
5078.927734	3527.932861
5077.966797	3529.896729
5077.004883	3408.025635
5076.043945	3430.645020
5075.082031	3427.466553
5074.120117	3501.645020
5073.158203	3593.844238
5072.196289	3459.179443
5071.234375	3448.266113
5070.271484	3496.621338
5069.308594	3668.620850
5068.345703	3544.339844
5067.382813	3577.200195
5066.419922	3550.825684
5065.457031	3635.162842
5064.493164	3588.194824
5063.529297	3536.095947
5062.565430	3723.315918
5061.601563	3601.749268
5060.637695	3719.441895
5059.673828	3703.360840
5058.708984	3630.716064
5057.744141	3676.356934
5056.779297	3477.791016
5055.814453	3662.221191
5054.849609	3612.759521
5053.883789	3727.736328
5052.918945	3845.241455
5051.953125	3723.864258
5050.987305	3646.180664
5050.020508	3676.350342
5049.054688	3696.241699
5048.088867	3764.887451
5047.122070	3597.442871
5046.155273	3825.141846
5045.188477	3642.354736
5044.221680	3877.659424
5043.253906	3820.569824
5042.287109	3691.716553
5041.319336	3732.082275
5040.351563	3805.750244
5039.383789	3717.964111
5038.416016	3701.941895
5037.447266	3767.891602
5036.479492	3675.035889
5035.510742	3804.980713
5034.541992	3840.156006
5033.573242	3821.566162
5032.604492	3790.186523
5031.634766	3722.995117
5030.665039	3834.908691
5029.696289	3752.385498
5028.726563	3892.386230
5027.755859	3889.147461
5026.786133	3893.579346
5025.815430	3900.565674
5024.845703	3853.881104
5023.875000	3886.423340
5022.904297	3763.115479
5021.933594	3943.810303
5020.961914	3848.627441
5019.991211	3830.079346
5019.019531	3872.808105
5018.047852	3874.682129
5017.076172	3794.889648
5016.104492	3880.979004
5015.131836	3890.503418
5014.160156	3948.487793
5013.187500	3889.139893
5012.214844	3949.653564
5011.242188	3959.158691
5010.268555	4006.894043
5009.295898	4029.127686
5008.322266	3926.500488
5007.348633	3755.124756
5006.375000	3981.160645
5005.401367	3916.795654
5004.427734	4084.160400
5003.453125	3945.971436
5002.479492	3940.188965
5001.504883	4097.281250
5000.530273	4048.218262
4999.554688	4128.916504
4998.580078	3927.251221
4997.604492	3959.622803
4996.629883	4190.310547
4995.654297	4174.322266
4994.678711	4138.004883
4993.702148	3997.506104
4992.726563	4149.257813
4991.750000	4168.853027
4990.773438	4038.582031
4989.796875	4218.181152
4988.820313	4126.033203
4987.843750	4105.000000
4986.866211	4155.043457
4985.889648	4159.389648
4984.912109	4201.793945
4983.934570	4013.328369
4982.957031	4149.590820
4981.978516	4126.038574
4981.000977	4064.461182
4980.022461	4223.458496
4979.043945	4215.112793
4978.065430	4047.115723
4977.086914	4150.289063
4976.107422	4139.426758
4975.127930	4285.605957
4974.149414	4327.904785
4973.169922	4220.801758
4972.189453	4252.970215
4971.209961	4148.448730
4970.230469	4135.066895
4969.250000	4291.212402
4968.269531	4257.571777
4967.289063	4072.184570
4966.308594	4342.057617
4965.327148	4212.345215
4964.346680	4292.500488
4963.365234	4304.383789
4962.383789	4283.410645
4961.402344	4414.043457
4960.420898	4332.429199
4959.438477	4298.833008
4958.457031	4257.672363
4957.474609	4231.675293
4956.492188	4299.091309
4955.509766	4285.715332
4954.527344	4375.809570
4953.543945	4337.193848
4952.560547	4497.880859
4951.577148	4428.990234
4950.593750	4473.603516
4949.610352	4465.252930
4948.626953	4328.340332
4947.642578	4486.366211
4946.658203	4505.737305
4945.674805	4545.257324
4944.689453	4483.999512
4943.705078	4541.140137
4942.720703	4444.649414
4941.735352	4484.151855
4940.750000	4548.813477
4939.764648	4492.641602
4938.779297	4476.752441
4937.793945	4491.061035
4936.807617	4460.083984
4935.821289	4607.690918
4934.835938	4533.954590
4933.849609	4540.699707
4932.862305	4524.817871
4931.875977	4476.268066
4930.888672	4417.683105
4929.902344	4597.802734
4928.915039	4694.962402
4927.926758	4596.184570
4926.939453	4582.819824
4925.952148	4609.630371
4924.963867	4581.206055
4923.975586	4552.791504
4922.987305	4569.555664
4921.999023	4526.099121
4921.010742	4572.963379
4920.021484	4624.827148
4919.032227	4661.626465
4918.042969	4700.919922
4917.053711	4827.934570
4916.064453	4684.226563
4915.075195	4703.448242
4914.084961	4740.200684
4913.094727	4706.801270
4912.104492	4710.980957
4911.114258	4670.085938
4910.124023	4674.270508
4909.132813	4771.070801
4908.142578	4777.738281
4907.151367	4774.394043
4906.160156	4878.631348
4905.167969	4607.617676
4904.176758	4724.352051
4903.184570	4943.566895
4902.193359	4815.190430
4901.201172	4799.343750
4900.208984	4893.467773
4899.215820	4820.140625
4898.223633	4929.217773
4897.230469	4875.893066
4896.237305	4932.474609
4895.244141	4971.557129
4894.250977	4835.865723
4893.257813	4857.478027
4892.263672	4896.552246
4891.269531	4978.032227
4890.275391	4852.413574
4889.281250	5011.197754
4888.287109	4930.507813
4887.292969	4894.729492
4886.297852	4871.428223
4885.302734	5022.618652
4884.307617	4976.873047
4883.312500	5025.830078
4882.317383	4975.117188
4881.321289	4986.693848
4880.325195	5157.652344
4879.329102	5062.123047
4878.333008	5058.740234
4877.336914	4983.174805
4876.340820	5064.420898
4875.343750	5033.668457
4874.346680	5241.753418
4873.349609	5173.669922
4872.352539	5080.741211
4871.355469	5171.843262
4870.357422	5151.041992
4869.360352	5115.334473
4868.362305	5124.372070
4867.364258	5145.829590
4866.365234	5122.562500
4865.367188	5074.464844
4864.368164	5282.173828
4863.370117	5142.195801
4862.371094	5133.839844
4861.371094	5167.682129
4860.372070	5256.108398
4859.373047	5255.179688
4858.373047	5276.578125
4857.373047	5231.000488
4856.373047	5086.242676
4855.373047	5288.658691
4854.372070	5260.455078
4853.372070	5346.275879
4852.371094	5273.465332
4851.370117	5441.016602
4850.369141	5392.986816
4849.368164	5367.265625
4848.366211	5410.892090
4847.364258	5340.608887
4846.363281	5379.272949
4845.361328	5410.498047
4844.358398	5384.795410
4843.356445	5373.946777
4842.353516	5417.523926
4841.351563	5478.399414
4840.348633	5514.523926
4839.344727	5498.713867
4838.341797	5403.805176
4837.338867	5363.304688
4836.334961	5515.566406
4835.331055	5650.479004
4834.327148	5486.442383
4833.323242	5569.446289
4832.318359	5558.583496
4831.314453	5414.401367
4830.309570	5519.589355
4829.304688	5432.229980
4828.299805	5675.564941
4827.294922	5566.003906
4826.289063	5651.355957
4825.284180	5610.894531
4824.278320	5580.311035
4823.272461	5623.701660
4822.265625	5432.899902
4821.259766	5744.940430
4820.252930	5615.788086
4819.247070	5745.370605
4818.240234	5672.918457
4817.233398	5674.376953
4816.225586	5577.338867
4815.218750	5630.514648
4814.210938	5796.901855
4813.203125	5616.215820
4812.195313	5753.018066
4811.187500	5825.805664
4810.179688	5814.935059
4809.170898	5713.071777
4808.162109	5736.648926
4807.153320	5851.181641
4806.144531	5687.914551
4805.135742	5701.652344
4804.125977	5953.731445
4803.117188	5832.296387
4802.107422	5990.922852
4801.097656	5957.935059
4800.086914	5961.790527
4799.077148	5813.434082
4798.066406	5917.950195
4797.055664	5872.727051
4796.045898	5886.408691
4795.034180	5904.991211
4794.023438	5884.322266
4793.011719	5986.279785
4792.000977	6093.104492
4790.989258	5947.384766
4789.977539	5990.449707
4788.965820	5999.190430
4787.953125	5941.771973
4786.940430	6124.452148
4785.928711	6049.885742
4784.916016	6090.444336
4783.902344	6040.395020
4782.889648	6000.155273
4781.876953	6038.252930
4780.863281	6110.597168
4779.849609	6023.877441
4778.835938	6309.026855
4777.821289	6048.645020
4776.807617	6118.489746
4775.792969	6193.199707
4774.779297	6064.982910
4773.763672	6220.332031
4772.749023	6119.036133
4771.734375	6157.042969
4770.718750	6258.549316
4769.704102	6120.664063
4768.688477	6222.140625
4767.671875	6106.284180
4766.656250	6356.634277
4765.640625	6250.557129
4764.624023	6254.328125
4763.607422	6145.866699
4762.590820	6156.972168
4761.574219	6285.143066
4760.556641	6213.310547
4759.540039	6431.633789
4758.522461	6176.977051
4757.504883	6336.735840
4756.487305	6250.323730
4755.468750	6392.958008
4754.451172	6360.155762
4753.432617	6407.735352
4752.414063	6479.648926
4751.395508	6271.555664
4750.376953	6238.797363
4749.357422	6476.196289
4748.338867	6355.813477
4747.319336	6532.284668
4746.299805	6407.069336
4745.280273	6500.779297
4744.259766	6499.624023
4743.240234	6396.360840
4742.219727	6261.534668
4741.199219	6571.498535
4740.178711	6434.258789
4739.158203	6593.457031
4738.136719	6597.143066
4737.115234	6421.114258
4736.094727	6422.400879
4735.073242	6460.102051
4734.050781	6704.107422
4733.029297	6455.378418
4732.006836	6614.373535
4730.984375	6656.864746
4729.961914	6631.425781
4728.939453	6865.481934
4727.916992	6854.562012
4726.893555	6783.040039
4725.871094	6810.919434
4724.847656	7061.739746
4723.824219	6929.644043
4722.799805	6831.510742
4721.776367	6760.054688
4720.751953	6877.513672
4719.727539	6912.608398
4718.703125	6867.804199
4717.678711	6813.333984
4716.654297	6819.381348
4715.628906	6953.660156
4714.603516	7066.119141
4713.578125	6871.370117
4712.552734	7010.403320
4711.527344	7043.004883
4710.500977	6889.458008
4709.474609	6919.651367
4708.449219	6995.747559
4707.421875	6878.530762
4706.395508	7048.816406
4705.369141	7074.128418
4704.341797	7077.698242
4703.314453	7006.422363
4702.287109	7251.393555
4701.259766	7235.621582
4700.231445	7236.745605
4699.204102	7047.272461
4698.175781	7181.100098
4697.147461	7256.997070
4696.119141	7180.953125
4695.090820	7191.728516
4694.061523	7190.447266
4693.032227	7386.790039
4692.002930	7173.427734
4690.973633	7364.884766
4689.944336	7272.039551
4688.915039	7186.452148
4687.884766	7327.237305
4686.854492	7306.671875
4685.824219	7312.590820
4684.793945	7332.946777
4683.762695	7642.037598
4682.732422	7267.783203
4681.701172	7504.615234
4680.669922	7457.583984
4679.638672	7328.817871
4678.607422	7599.167480
4677.575195	7405.523926
4676.542969	7502.733887
4675.510742	7347.619629
4674.478516	7533.690430
4673.446289	7580.384766
4672.413086	7528.602051
4671.380859	7647.311523
4670.347656	7727.568359
4669.314453	7634.982910
4668.281250	7559.228516
4667.247070	7634.658203
4666.213867	7561.329102
4665.179688	7564.777344
4664.145508	7676.135254
4663.111328	7780.260742
4662.076172	7572.714355
4661.041992	7715.168457
4660.006836	7723.376953
4658.971680	7889.711914
4657.936523	7699.061035
4656.900391	7963.537109
4655.865234	7969.299805
4654.829102	7982.242188
4653.792969	8045.448730
4652.756836	7895.625488
4651.720703	7851.143555
4650.684570	7876.059082
4649.647461	7908.141602
4648.610352	7885.204590
4647.573242	7879.014160
4646.536133	8064.087402
4645.498047	7921.616699
4644.460938	8166.363770
4643.422852	8181.631836
4642.384766	8053.549805
4641.346680	7975.674316
4640.308594	8170.083496
4639.269531	8037.295410
4638.230469	8112.254883
4637.191406	8129.900879
4636.152344	8133.221191
4635.113281	8177.103516
4634.073242	8235.283203
4633.034180	8271.975586
4631.994141	8179.874512
4630.954102	8156.953125
4629.914063	8305.684570
4628.873047	8423.375977
4627.832031	8257.436523
4626.791992	8298.848633
4625.750977	8325.951172
4624.708984	8455.462891
4623.667969	8427.755859
4622.625977	8359.582031
4621.584961	8308.095703
4620.542969	8477.978516
4619.500000	8462.183594
4618.458008	8220.364258
4617.416016	8333.079102
4616.373047	8562.294922
4615.330078	8548.873047
4614.287109	8549.721680
4613.244141	8524.419922
4612.200195	8544.286133
4611.156250	8438.200195
4610.112305	8724.169922
4609.068359	8808.125000
4608.024414	8621.297852
4606.980469	8565.139648
4605.935547	8777.281250
4604.890625	8804.195313
4603.845703	8691.073242
4602.800781	8568.500977
4601.754883	8635.768555
4600.709961	8548.829102
4599.664063	8677.737305
4598.618164	8982.067383
4597.572266	8788.426758
4596.526367	8839.000977
4595.479492	8780.540039
4594.432617	8937.723633
4593.385742	8929.016602
4592.338867	8972.421875
4591.291992	8913.977539
4590.244141	8936.058594
4589.197266	8761.639648
4588.149414	9079.608398
4587.101563	9023.551758
4586.052734	9040.864258
4585.004883	9051.072266
4583.956055	9207.922852
4582.907227	9116.409180
4581.858398	8970.547852
4580.809570	9089.502930
4579.759766	9057.147461
4578.710938	9225.669922
4577.661133	9077.528320
4576.611328	9222.363281
4575.561523	9161.664063
4574.510742	9183.635742
4573.460938	9184.350586
4572.410156	9324.339844
4571.359375	9270.744141
4570.308594	9332.794922
4569.256836	9234.389648
4568.206055	9388.420898
4567.154297	9174.474609
4566.102539	9264.793945
4565.050781	9006.150391
4563.999023	9398.188477
4562.946289	9424.784180
4561.893555	9328.839844
4560.840820	9353.081055
4559.788086	9525.711914
4558.735352	9385.051758
4557.681641	9369.240234
4556.628906	9393.456055
4555.575195	9596.553711
4554.521484	9425.386719
4553.467773	9487.225586
4552.413086	9643.144531
4551.358398	9537.919922
4550.304688	9717.290039
4549.249023	9708.492188
4548.194336	9633.872070
4547.139648	9669.750000
4546.083984	9830.166016
4545.028320	9717.969727
4543.972656	9730.320313
4542.916992	9902.381836
4541.861328	9874.771484
4540.804688	9755.602539
4539.748047	9784.368164
4538.691406	9801.387695
4537.634766	9799.627930
4536.578125	9955.065430
4535.520508	10009.576172
4534.462891	10120.357422
4533.405273	9982.531250
4532.347656	9748.627930
4531.290039	9901.588867
4530.231445	10183.397461
4529.173828	10069.090820
4528.115234	10086.024414
4527.055664	9992.856445
4525.997070	10058.979492
4524.938477	10094.636719
4523.878906	10336.305664
4522.819336	10041.852539
4521.759766	10124.299805
4520.700195	10085.041016
4519.639648	10148.734375
4518.579102	10240.472656
4517.519531	10105.328125
4516.458008	10061.423828
4515.397461	10361.192383
4514.336914	10310.244141
4513.275391	10334.096680
4512.213867	10227.093750
4511.152344	10297.673828
4510.090820	10293.486328
4509.028320	10401.393555
4507.966797	10315.467773
4506.904297	10392.983398
4505.841797	10500.813477
4504.779297	10440.583984
4503.715820	10515.700195
4502.653320	10609.452148
4501.589844	10651.858398
4500.526367	10519.352539
4499.461914	10568.752930
4498.398438	10454.958984
4497.333984	10662.837891
4496.270508	10765.780273
4495.206055	10710.255859
4494.140625	10687.363281
4493.076172	10725.032227
4492.010742	10692.830078
4490.946289	10590.794922
4489.880859	10819.333984
4488.815430	10912.805664
4487.749023	10854.995117
4486.683594	10873.979492
4485.617188	10811.542969
4484.550781	10858.434570
4483.484375	10875.081055
4482.416992	11168.372070
4481.350586	11024.573242
4480.283203	10848.290039
4479.215820	11087.984375
4478.148438	11013.969727
4477.081055	10935.335938
4476.012695	11265.454102
4474.944336	10968.545898
4473.875977	11196.393555
4472.807617	11092.250000
4471.739258	11206.282227
4470.669922	11197.302734
4469.601563	11292.714844
4468.532227	11490.145508
4467.462891	11274.730469
4466.392578	11402.536133
4465.323242	11275.302734
4464.252930	11317.305664
4463.182617	11201.718750
4462.112305	11445.286133
4461.041992	11526.614258
4459.970703	11714.450195
4458.900391	11534.036133
4457.829102	11534.270508
4456.757813	11509.042969
4455.685547	11488.452148
4454.614258	11567.368164
4453.541992	11632.373047
4452.469727	11727.424805
4451.397461	11741.498047
4450.325195	11755.565430
4449.251953	11869.037109
4448.179688	11723.586914
4447.106445	11640.585938
4446.033203	11784.052734
4444.959961	11902.055664
4443.885742	12040.803711
4442.811523	11856.191406
4441.738281	12027.221680
4440.663086	11995.040039
4439.588867	12057.500977
4438.514648	11776.095703
4437.439453	11893.947266
4436.364258	12014.062500
4435.289063	12129.521484
4434.213867	12143.473633
4433.137695	12113.613281
4432.062500	12007.692383
4430.986328	12203.733398
4429.910156	12217.660156
4428.833984	12167.071289
4427.756836	12268.531250
4426.680664	12188.009766
4425.603516	12261.796875
4424.526367	12142.166016
4423.448242	12331.026367
4422.371094	12386.333984
4421.292969	12425.514648
4420.214844	12312.839844
4419.136719	12434.825195
4418.058594	12349.786133
4416.980469	12398.140625
4415.901367	12359.116211
4414.822266	12494.793945
4413.743164	12529.305664
4412.664063	12437.429688
4411.583984	12690.179688
4410.504883	12449.011719
4409.424805	12731.520508
4408.344727	12481.247070
4407.264648	12814.150391
4406.183594	12816.423828
4405.103516	12543.321289
4404.022461	12869.148438
4402.941406	12697.067383
4401.859375	12800.274414
4400.778320	12850.701172
4399.696289	12788.765625
4398.614258	13111.958984
4397.532227	12981.241211
4396.450195	12962.852539
4395.368164	12900.939453
4394.285156	13228.457031
4393.202148	13070.328125
4392.119141	13225.959961
4391.036133	13141.148438
4389.952148	13122.747070
4388.869141	13049.425781
4387.785156	13342.236328
4386.701172	13081.306641
4385.617188	13243.625977
4384.532227	13334.992188
4383.448242	13241.117188
4382.363281	13284.442383
4381.278320	13090.040039
4380.192383	13222.500000
4379.107422	13380.044922
4378.021484	13359.346680
4376.935547	13621.873047
4375.849609	13347.657227
4374.763672	13356.655273
4373.677734	13612.189453
4372.590820	13504.735352
4371.503906	13614.103516
4370.416992	13445.085938
4369.330078	13579.516602
4368.242188	13704.776367
4367.154297	13784.383789
4366.067383	13802.404297
4364.979492	14021.011719
4363.890625	13742.705078
4362.802734	13856.424805
4361.713867	13712.663086
4360.625000	13851.402344
4359.536133	13627.983398
4358.447266	13741.639648
4357.357422	13893.955078
4356.268555	13921.026367
4355.178711	13775.129883
4354.088867	13827.240234
4352.998047	13767.860352
4351.908203	13988.265625
4350.817383	14133.545898
4349.726563	14051.403320
4348.635742	13953.376953
4347.544922	14021.304688
4346.453125	14227.827148
4345.361328	14277.502930
4344.269531	13934.168945
4343.177734	14174.661133
4342.085938	14417.335938
4340.993164	14176.329102
4339.901367	14357.625000
4338.808594	14391.332031
4337.715820	14198.111328
4336.622070	14401.990234
4335.529297	14292.764648
4334.435547	14437.585938
4333.341797	14589.155273
4332.248047	14634.116211
4331.154297	14642.792969
4330.059570	14497.359375
4328.964844	14483.397461
4327.870117	14557.793945
4326.775391	14525.704102
4325.680664	14869.554688
4324.584961	14810.249023
4323.489258	14662.675781
4322.393555	14811.660156
4321.297852	14872.333984
4320.202148	14880.945313
4319.105469	14851.095703
4318.008789	14850.660156
4316.912109	14933.892578
4315.815430	14892.743164
4314.718750	15064.097656
4313.621094	14964.175781
4312.523438	14909.483398
4311.425781	14967.774414
4310.328125	14987.643555
4309.229492	15183.664063
4308.131836	15296.065430
4307.033203	15105.900391
4305.934570	15116.698242
4304.835938	15186.167969
4303.736328	15357.151367
4302.636719	15243.815430
4301.538086	15236.532227
4300.437500	15423.197266
4299.337891	15440.685547
4298.238281	15410.825195
4297.137695	15387.737305
4296.037109	15677.899414
4294.936523	15526.340820
4293.835938	15469.451172
4292.734375	15356.273438
4291.632813	15601.189453
4290.532227	15663.644531
4289.429688	15395.166992
4288.328125	15588.174805
4287.225586	15783.361328
4286.124023	15735.492188
4285.021484	15674.143555
4283.918945	15779.245117
4282.815430	15882.058594
4281.712891	15791.487305
4280.609375	15952.703125
4279.505859	15920.583008
4278.402344	16162.606445
4277.297852	15970.951172
4276.194336	15893.919922
4275.089844	15931.450195
4273.985352	15946.511719
4272.880859	16010.956055
4271.775391	15965.394531
4270.670898	16234.026367
4269.565430	16112.152344
4268.459961	16053.135742
4267.354492	16130.956055
4266.248047	16309.659180
4265.141602	16338.078125
4264.036133	16344.068359
4262.929688	16323.160156
4261.822266	16349.317383
4260.715820	16225.353516
4259.608398	16318.718750
4258.500977	16671.847656
4257.393555	16267.987305
4256.286133	16455.322266
4255.177734	16600.058594
4254.069336	16534.369141
4252.961914	16542.542969
4251.852539	16492.544922
4250.744141	16661.771484
4249.635742	16620.714844
4248.526367	16716.066406
4247.416992	16838.210938
4246.307617	16658.562500
4245.197266	16836.539063
4244.087891	16786.548828
4242.977539	16868.375000
4241.867188	16914.435547
4240.756836	16882.320313
4239.645508	16879.242188
4238.535156	16909.646484
4237.423828	16886.474609
4236.312500	16970.421875
4235.200195	17179.277344
4234.088867	16915.154297
4232.976563	17222.074219
4231.864258	16951.349609
4230.751953	16957.173828
4229.639648	17223.792969
4228.527344	17144.875000
4227.414063	17188.539063
4226.300781	17270.058594
4225.187500	17162.216797
4224.074219	17103.408203
4222.959961	17262.828125
4221.845703	17422.189453
4220.731445	17318.847656
4219.617188	17418.052734
4218.502930	17316.972656
4217.387695	17309.361328
4216.272461	17613.132813
4215.157227	17465.373047
4214.041992	17526.660156
4212.926758	17421.203125
4211.810547	17433.578125
4210.694336	17714.826172
4209.578125	17616.054688
4208.461914	17530.648438
4207.345703	17569.642578
4206.228516	17708.544922
4205.111328	17614.283203
4203.994141	17633.261719
4202.876953	17891.916016
4201.758789	17695.601563
4200.640625	17701.242188
4199.523438	17890.978516
4198.404297	17869.966797
4197.286133	18021.908203
4196.167969	17901.119141
4195.048828	17727.179688
4193.929688	17967.703125
4192.810547	17884.654297
4191.690430	17894.675781
4190.571289	18017.648438
4189.451172	17881.488281
4188.331055	18139.470703
4187.210938	17919.218750
4186.089844	18110.703125
4184.968750	18098.539063
4183.848633	18017.794922
4182.727539	18078.646484
4181.605469	18112.935547
4180.484375	18096.353516
4179.362305	18168.208984
4178.240234	18315.189453
4177.118164	18309.628906
4175.996094	18067.644531
4174.873047	18132.820313
4173.750000	18392.343750
4172.626953	18333.767578
4171.503906	18200.142578
4170.380859	18225.509766
4169.256836	18584.144531
4168.133789	18258.556641
4167.009766	18339.054688
4165.884766	18227.605469
4164.760742	18085.320313
4163.635742	18392.929688
4162.510742	18614.443359
4161.385742	18474.365234
4160.260742	18548.119141
4159.135742	18214.195313
4158.009766	18567.761719
4156.883789	18504.886719
4155.757813	18525.720703
4154.630859	18583.980469
4153.504883	18360.425781
4152.377930	18652.005859
4151.250977	18380.105469
4150.124023	18763.986328
4148.997070	18771.546875
4147.869141	18900.074219
4146.741211	18463.392578
4145.613281	18695.265625
4144.485352	18614.898438
4143.356445	18732.369141
4142.228516	18759.699219
4141.099609	18760.652344
4139.970703	18636.396484
4138.841797	18942.650391
4137.711914	18849.146484
4136.582031	18696.400391
4135.452148	18750.042969
4134.322266	18862.917969
4133.192383	18657.589844
4132.061523	18961.302734
4130.931641	18975.373047
4129.800781	19015.751953
4128.668945	19174.517578
4127.538086	19155.652344
4126.406250	18941.722656
4125.274414	18870.312500
4124.142578	19072.806641
4123.010742	19205.123047
4121.878906	19000.099609
4120.746094	19046.976563
4119.613281	19231.769531
4118.480469	19440.572266
4117.347656	19229.085938
4116.213867	19280.261719
4115.080078	19025.125000
4113.946289	19146.312500
4112.812500	18956.902344
4111.678711	19274.849609
4110.543945	19430.902344
4109.409180	19221.869141
4108.274414	19310.125000
4107.139648	19275.988281
4106.003906	19482.167969
4104.869141	19537.562500
4103.733398	19164.914063
4102.597656	19414.664063
4101.460938	19424.195313
4100.325195	19435.904297
4099.188477	19587.267578
4098.051758	19498.578125
4096.915039	19573.525391
4095.778320	19504.498047
4094.640625	19121.492188
4093.502930	19479.886719
4092.365234	19718.261719
4091.227539	19357.218750
4090.088867	19599.884766
4088.951172	19589.746094
4087.812500	19681.982422
4086.673828	19787.251953
4085.534180	19400.396484
4084.395508	19701.605469
4083.255859	19445.498047
4082.116211	19883.685547
4080.976563	19575.419922
4079.836914	19591.396484
4078.696289	19861.839844
4077.555664	19808.169922
4076.415039	19537.103516
4075.274414	20000.869141
4074.132813	19532.087891
4072.992188	19826.191406
4071.850586	19770.400391
4070.708984	19658.154297
4069.566406	20038.939453
4068.424805	19800.742188
4067.282227	19844.859375
4066.139648	20027.875000
4064.997070	19813.681641
4063.853516	19744.941406
4062.710938	19960.412109
4061.567383	19852.626953
4060.423828	20031.130859
4059.280273	19782.439453
4058.135742	19967.392578
4056.991211	19868.349609
4055.847656	20321.923828
4054.702148	20114.521484
4053.557617	20342.597656
4052.413086	19894.865234
4051.267578	19973.484375
4050.122070	20021.765625
4048.976563	20100.330078
4047.830078	19955.955078
4046.683594	19785.666016
4045.538086	19950.763672
4044.390625	20063.888672
4043.244141	20153.181641
4042.097656	20287.847656
4040.950195	20093.871094
4039.802734	20314.951172
4038.655273	19848.753906
4037.506836	20162.703125
4036.359375	20076.896484
4035.210938	20062.396484
4034.062500	20222.812500
4032.914063	20268.740234
4031.764648	20139.802734
4030.616211	20356.226563
4029.466797	20214.371094
4028.317383	20290.466797
4027.166992	20168.089844
4026.017578	20218.283203
4024.867188	20305.115234
4023.716797	19893.919922
4022.566406	20299.779297
4021.415039	20298.189453
4020.264648	20376.318359
4019.113281	20486.732422
4017.961914	20528.183594
4016.810547	20369.347656
4015.658203	20068.468750
4014.505859	20290.791016
4013.353516	20211.716797
4012.201172	20345.705078
4011.048828	20331.191406
4009.895508	20342.494141
4008.742188	20241.958984
4007.588867	20343.583984
4006.435547	20561.263672
4005.282227	20639.146484
4004.127930	20577.308594
4002.973633	20511.197266
4001.819336	20507.410156
4000.665039	20366.156250
3999.509766	20448.294922
3998.354492	20425.193359
3997.199219	20090.830078
3996.043945	20314.625000
3994.888672	20416.019531
3993.732422	20238.462891
3992.576172	20603.679688
3991.419922	20308.191406
3990.263672	20115.740234
3989.106445	20232.080078
3987.949219	20522.001953
3986.792969	20310.326172
3985.634766	20497.275391
3984.477539	20343.521484
3983.319336	20281.929688
3982.161133	20168.960938
3981.002930	20417.886719
3979.844727	20617.480469
3978.686523	20403.914063
3977.527344	20496.437500
3976.368164	20293.669922
3975.208984	20332.699219
3974.048828	20399.517578
3972.889648	20254.611328
3971.729492	20524.523438
3970.569336	20683.183594
3969.409180	20369.464844
3968.248047	20327.234375
3967.087891	20214.517578
3965.926758	20501.271484
3964.764648	20151.509766
3963.603516	20145.644531
3962.442383	20622.248047
3961.280273	20110.441406
3960.118164	20198.482422
3958.955078	20320.626953
3957.792969	20419.259766
3956.629883	20278.976563
3955.466797	19963.886719
3954.303711	20064.660156
3953.140625	20139.816406
3951.976563	20387.574219
3950.813477	20275.125000
3949.649414	20333.152344
3948.484375	20148.330078
3947.320313	20425.714844
3946.155273	20085.505859
3944.990234	20239.322266
3943.825195	20052.521484
3942.660156	20055.191406
3941.494141	20308.927734
3940.329102	20075.414063
3939.163086	20086.582031
3937.996094	20227.462891
3936.830078	20376.796875
3935.663086	20228.468750
3934.496094	20037.689453
3933.329102	20089.224609
3932.162109	20166.232422
3930.995117	20086.025391
3929.827148	20220.345703
3928.659180	19898.091797
3927.491211	19894.400391
3926.322266	20032.925781
3925.153320	20128.953125
3923.985352	20057.322266
3922.816406	20083.302734
3921.646484	20092.302734
3920.477539	19819.257813
3919.307617	20091.208984
3918.137695	20142.597656
3916.967773	20020.171875
3915.796875	20162.671875
3914.626953	19951.302734
3913.456055	19970.902344
3912.285156	20248.871094
3911.113281	19870.322266
3909.942383	19983.072266
3908.770508	20091.548828
3907.598633	20079.353516
3906.426758	19864.037109
3905.253906	19928.044922
3904.082031	19784.748047
3902.909180	19795.876953
3901.736328	19713.972656
3900.562500	19885.767578
3899.389648	19539.681641
3898.215820	19861.476563
3897.041992	19669.753906
3895.868164	19849.875000
3894.693359	19801.837891
3893.519531	19622.898438
3892.344727	19762.812500
3891.169922	19769.695313
3889.994141	19808.230469
3888.819336	19753.910156
3887.643555	19646.867188
3886.467773	19620.015625
3885.291992	19673.308594
3884.115234	19823.568359
3882.939453	19756.642578
3881.762695	19618.080078
3880.585938	19553.322266
3879.408203	19840.435547
3878.231445	19811.470703
3877.053711	19622.451172
3875.875977	19761.990234
3874.698242	19450.939453
3873.519531	19483.107422
3872.341797	19546.828125
3871.163086	19780.960938
3869.984375	19518.521484
3868.804688	19556.957031
3867.625977	19690.011719
3866.446289	19560.195313
3865.266602	19573.373047
3864.085938	19426.810547
3862.906250	19669.058594
3861.725586	19499.419922
3860.544922	19359.251953
3859.364258	19408.154297
3858.183594	19484.335938
3857.001953	19400.931641
3855.820313	19506.470703
3854.638672	19276.185547
3853.457031	19453.048828
3852.274414	19283.693359
3851.092773	19263.324219
3849.910156	19360.398438
3848.726563	19295.988281
3847.543945	19558.628906
3846.360352	19292.996094
3845.177734	19490.574219
3843.993164	19315.142578
3842.809570	19495.882813
3841.625977	19406.382813
3840.441406	19199.652344
3839.256836	19244.226563
3838.072266	19165.287109
3836.886719	19161.716797
3835.701172	19258.582031
3834.516602	18999.765625
3833.330078	18998.318359
3832.144531	19189.263672
3830.958008	19045.599609
3829.772461	19226.009766
3828.585938	19197.345703
3827.398438	18846.878906
3826.211914	19317.636719
3825.024414	19157.367188
3823.836914	18972.093750
3822.649414	18999.878906
3821.461914	18969.195313
3820.273438	18821.630859
3819.084961	19058.121094
3817.896484	18687.330078
3816.708008	18977.996094
3815.518555	19043.289063
3814.329102	18816.597656
3813.139648	18886.062500
3811.950195	18621.960938
3810.760742	18695.603516
3809.570313	18756.714844
3808.379883	18696.962891
3807.189453	18883.033203
3805.999023	18700.398438
3804.807617	18884.314453
3803.616211	18720.482422
3802.424805	18525.490234
3801.233398	18688.521484
3800.041992	18645.500000
3798.849609	18332.046875
3797.657227	18734.216797
3796.464844	18572.669922
3795.271484	18467.322266
3794.079102	18403.589844
3792.885742	18549.796875
3791.692383	18629.455078
3790.498047	18432.755859
3789.304688	18389.843750
3788.110352	18440.408203
3786.916016	18272.921875
3785.721680	18589.224609
3784.526367	18421.771484
3783.332031	18021.947266
3782.136719	18381.689453
3780.941406	18378.255859
3779.745117	18208.888672
3778.549805	17904.792969
3777.353516	18295.384766
3776.157227	18240.140625
3774.960938	18066.779297
3773.763672	18146.291016
3772.566406	18105.605469
3771.369141	17866.078125
3770.171875	18160.966797
3768.974609	17871.820313
3767.776367	18139.683594
3766.578125	17904.464844
3765.379883	17971.480469
3764.181641	18141.923828
3762.982422	18051.644531
3761.783203	17814.544922
3760.583984	17697.476563
3759.384766	17570.111328
3758.184570	17715.662109
3756.985352	17747.482422
3755.785156	17688.369141
3754.584961	17833.812500
3753.383789	17564.007813
3752.183594	17337.675781
3750.982422	17499.619141
3749.781250	17564.470703
3748.579102	17544.669922
3747.377930	17551.705078
3746.175781	17573.179688
3744.973633	17454.365234
3743.771484	17529.474609
3742.568359	17295.230469
3741.365234	17304.363281
3740.162109	17356.779297
3738.958984	17034.076172
3737.755859	17084.460938
3736.551758	17431.498047
3735.347656	17244.908203
3734.143555	17083.099609
3732.939453	16954.296875
3731.734375	17183.751953
3730.529297	17211.406250
3729.324219	17097.054688
3728.119141	17188.496094
3726.914063	16921.962891
3725.708008	16961.982422
3724.501953	16967.029297
3723.295898	16982.353516
3722.088867	16987.392578
3720.882813	16916.386719
3719.675781	16822.802734
3718.468750	16981.949219
3717.260742	16972.603516
3716.053711	16911.917969
3714.845703	16820.457031
3713.637695	16985.638672
3712.429688	16844.935547
3711.220703	16761.744141
3710.011719	16553.425781
3708.802734	16751.353516
3707.593750	16610.796875
3706.384766	16601.529297
3705.174805	16442.599609
3703.964844	16496.908203
3702.754883	16694.658203
3701.544922	16388.265625
3700.333984	16372.898438
3699.123047	16570.556641
3697.912109	16602.261719
3696.701172	16439.439453
3695.489258	16076.059570
3694.278320	16357.539063
3693.066406	16303.309570
3691.853516	16488.478516
3690.641602	16184.680664
3689.428711	16110.059570
3688.215820	16176.558594
3687.002930	16306.409180
3685.790039	16229.760742
3684.576172	16100.004883
3683.362305	15998.903320
3682.148438	15955.041016
3680.934570	15909.150391
3679.719727	16004.184570
3678.504883	15931.757813
3677.290039	15771.580078
3676.075195	16019.657227
3674.860352	15851.358398
3673.644531	15907.545898
3672.428711	15961.670898
3671.212891	15903.606445
3669.996094	15761.960938
3668.780273	15763.075195
3667.563477	15857.950195
3666.346680	15891.651367
3665.128906	15870.326172
3663.912109	15861.230469
3662.694336	15554.770508
3661.476563	15586.463867
3660.257813	15618.144531
3659.040039	15633.528320
3657.821289	15606.165039
3656.602539	15704.972656
3655.383789	15425.331055
3654.164063	15404.122070
3652.945313	15677.807617
3651.725586	15416.626953
3650.504883	15401.528320
3649.285156	15414.890625
3648.064453	15241.288086
3646.844727	15268.896484
3645.623047	15450.880859
3644.402344	15163.628906
3643.180664	15353.686523
3641.959961	15025.954102
3640.738281	15120.559570
3639.515625	15174.539063
3638.293945	15005.294922
3637.071289	15294.607422
3635.848633	14906.340820
3634.625977	15102.274414
3633.402344	15089.292969
3632.178711	14920.219727
3630.955078	15164.682617
3629.731445	14876.097656
3628.507813	14956.364258
3627.283203	15109.523438
3626.058594	15017.564453
3624.833984	14822.368164
3623.609375	14876.261719
3622.383789	14760.106445
3621.158203	14704.707031
3619.932617	14695.866211
3618.707031	14769.970703
3617.480469	14730.779297
3616.254883	14614.756836
3615.028320	14662.548828
3613.800781	14675.956055
3612.574219	14553.944336
3611.346680	14494.620117
3610.119141	14542.395508
3608.891602	14531.574219
3607.663086	14458.148438
3606.435547	14447.344727
3605.207031	14464.808594
3603.978516	14347.029297
3602.749023	14354.414063
3601.520508	14503.031250
3600.291016	14332.860352
3599.061523	14307.969727
3597.831055	14141.931641
3596.601563	14183.618164
3595.371094	14299.872070
3594.140625	14268.958008
3592.909180	14078.870117
3591.678711	14120.534180
3590.447266	14089.669922
3589.215820	14060.830078
3587.984375	14176.971680
3586.751953	14047.468750
3585.520508	13809.328125
3584.288086	13931.486328
3583.054688	13850.388672
3581.822266	14173.650391
3580.588867	13835.102539
3579.355469	13892.814453
3578.122070	13701.208008
3576.888672	13698.620117
3575.654297	13583.490234
3574.419922	13916.478516
3573.185547	13658.715820
3571.951172	13802.758789
3570.715820	13677.653320
3569.480469	13456.218750
3568.245117	13704.602539
3567.009766	13645.816406
3565.773438	13554.944336
3564.538086	13566.426758
3563.301758	13549.821289
3562.064453	13595.391602
3560.828125	13446.447266
3559.590820	13461.947266
3558.353516	13413.301758
3557.116211	13348.641602
3555.877930	13127.722656
3554.640625	13525.888672
3553.402344	13305.018555
3552.164063	13404.628906
3550.924805	13360.049805
3549.686523	13185.374023
3548.447266	13244.920898
3547.207031	12932.265625
3545.967773	13293.926758
3544.727539	13187.400391
3543.488281	13026.917969
3542.248047	13066.441406
3541.006836	13179.915039
3539.766602	12905.597656
3538.525391	13071.014648
3537.284180	13014.595703
3536.041992	12856.322266
3534.800781	12967.728516
3533.558594	12793.547852
3532.316406	13194.404297
3531.074219	12798.683594
3529.831055	12844.157227
3528.587891	12821.771484
3527.344727	12919.089844
3526.101563	12800.958984
3524.858398	12754.663086
3523.614258	12724.333984
3522.370117	12548.498047
3521.125977	12436.503906
3519.880859	12430.162109
3518.636719	12561.290039
3517.391602	12564.885742
3516.146484	12502.758789
3514.900391	12629.814453
3513.655273	12460.196289
3512.409180	12581.239258
3511.163086	12445.523438
3509.916016	12552.594727
3508.669922	12351.289063
3507.422852	12426.513672
3506.175781	12549.433594
3504.927734	12266.728516
3503.680664	12278.317383
3502.432617	12299.836914
3501.184570	12150.467773
3499.935547	12340.865234
3498.687500	12288.868164
3497.438477	12312.353516
3496.189453	12296.120117
3494.940430	12168.725586
3493.690430	12227.943359
3492.441406	12177.999023
3491.190430	12054.666016
3489.940430	12008.739258
3488.690430	12262.296875
3487.439453	11938.747070
3486.188477	11990.008789
3484.937500	11961.965820
3483.685547	11694.144531
3482.434570	11749.383789
3481.182617	11883.839844
3479.929688	11857.816406
3478.677734	12031.804688
3477.424805	11774.121094
3476.171875	11817.412109
3474.918945	11793.398438
3473.666016	11822.818359
3472.412109	11929.381836
3471.158203	11551.302734
3469.904297	11651.943359
3468.650391	11683.341797
3467.395508	11645.540039
3466.140625	11554.386719
3464.885742	11660.875977
3463.630859	11494.675781
3462.375000	11533.973633
3461.119141	11539.681641
3459.863281	11628.319336
3458.607422	11558.986328
3457.350586	11619.952148
3456.093750	11373.034180
3454.836914	11483.337891
3453.580078	11469.319336
3452.322266	11374.438477
3451.064453	11362.416016
3449.806641	11344.483398
3448.548828	11293.045898
3447.291016	11385.498047
3446.032227	11267.075195
3444.773438	11081.714844
3443.513672	11298.244141
3442.254883	11201.567383
3440.995117	10967.099609
3439.735352	11209.117188
3438.475586	11210.920898
3437.214844	11198.948242
3435.955078	11289.288086
3434.694336	11230.093750
3433.432617	10982.118164
3432.171875	11056.714844
3430.910156	10999.563477
3429.648438	10977.813477
3428.386719	11036.645508
3427.124023	10928.443359
3425.862305	10961.722656
3424.599609	10883.036133
3423.335938	10786.705078
3422.073242	10871.038086
3420.809570	10865.041992
3419.545898	10778.581055
3418.282227	10723.548828
3417.018555	10711.696289
3415.753906	10664.541992
3414.489258	10776.253906
3413.224609	10682.046875
3411.958984	10636.883789
3410.694336	10777.935547
3409.428711	10613.234375
3408.163086	10803.216797
3406.896484	10423.097656
3405.629883	10593.458008
3404.364258	10530.737305
3403.096680	10503.280273
3401.830078	10593.273438
3400.562500	10608.867188
3399.294922	10628.367188
3398.027344	10350.509766
3396.759766	10512.830078
3395.491211	10235.099609
3394.222656	10501.000000
3392.954102	10358.254883
3391.685547	10438.363281
3390.416016	10477.406250
3389.146484	10389.448242
3387.876953	10453.876953
3386.607422	10178.477539
3385.336914	10151.152344
3384.066406	10188.258789
3382.795898	10176.555664
3381.525391	10139.488281
3380.253906	10225.349609
3378.982422	10153.173828
3377.710938	10215.595703
3376.439453	10137.599609
3375.166992	10192.200195
3373.894531	9968.049805
3372.622070	10053.841797
3371.349609	10100.632813
3370.076172	10198.055664
3368.802734	9956.542969
3367.529297	10040.323242
3366.255859	9923.536133
3364.981445	9935.266602
3363.707031	9925.583984
3362.432617	10022.924805
3361.158203	9783.666016
3359.882813	9986.029297
3358.607422	9867.439453
3357.332031	9813.056641
3356.056641	9774.246094
3354.780273	9770.434570
3353.503906	9706.384766
3352.227539	9725.900391
3350.951172	9832.820313
3349.673828	9848.419922
3348.396484	9774.692383
3347.119141	9576.746094
3345.841797	9569.092773
3344.563477	9646.828125
3343.285156	9658.565430
3342.006836	9718.794922
3340.728516	9693.662109
3339.449219	9744.164063
3338.169922	9573.627930
3336.890625	9726.868164
3335.611328	9403.295898
3334.331055	9358.868164
3333.050781	9591.489258
3331.770508	9496.681641
3330.490234	9587.818359
3329.208984	9659.558594
3327.927734	9398.312500
3326.646484	9475.866211
3325.365234	9456.637695
3324.083008	9445.154297
3322.800781	9509.112305
3321.518555	9333.237305
3320.236328	9352.719727
3318.953125	9638.976563
3317.669922	9182.914063
3316.386719	9132.843750
3315.103516	9293.391602
3313.819336	9328.314453
3312.535156	9291.763672
3311.250977	9191.502930
3309.966797	9301.718750
3308.681641	9234.307617
3307.396484	9107.096680
3306.111328	9223.051758
3304.826172	9286.875000
3303.540039	9358.388672
3302.253906	9107.832031
3300.967773	9104.159180
3299.681641	9200.724609
3298.394531	9096.814453
3297.107422	9095.071289
3295.820313	9062.502930
3294.532227	9060.765625
3293.245117	9087.915039
3291.957031	9045.738281
3290.668945	9005.501953
3289.379883	9194.321289
3288.091797	9003.973633
3286.802734	8969.539063
3285.512695	9019.755859
3284.223633	8991.100586
3282.933594	8925.920898
3281.643555	8939.588867
3280.353516	8970.549805
3279.063477	9072.603516
3277.772461	9165.010742
3276.481445	8892.388672
3275.190430	8777.363281
3273.898438	8850.570313
3272.607422	8925.667969
3271.315430	8806.862305
3270.022461	8709.212891
3268.730469	8862.964844
3267.437500	8811.383789
3266.144531	8809.692383
3264.851563	8769.646484
3263.557617	8725.781250
3262.264648	8701.101563
3260.970703	8870.007813
3259.675781	8822.314453
3258.381836	8757.396484
3257.086914	8742.306641
3255.791992	8646.786133
3254.497070	8526.410156
3253.201172	8779.385742
3251.905273	8750.902344
3250.609375	8444.950195
3249.313477	8563.864258
3248.016602	8602.389648
3246.720703	8671.500000
3245.423828	8700.428711
3244.125977	8522.869141
3242.829102	8528.876953
3241.531250	8653.368164
3240.233398	8475.918945
3238.934570	8606.103516
3237.636719	8394.350586
3236.337891	8427.109375
3235.039063	8473.220703
3233.739258	8326.516602
3232.440430	8387.895508
3231.140625	8590.453125
3229.840820	8333.159180
3228.540039	8447.907227
3227.240234	8114.457520
3225.939453	8515.204102
3224.638672	8441.125977
3223.336914	8176.481934
3222.035156	8477.894531
3220.734375	8365.760742
3219.431641	8425.105469
3218.129883	8033.067383
3216.827148	8181.945313
3215.524414	8210.830078
3214.221680	8163.568359
3212.918945	8236.213867
3211.615234	8080.514160
3210.311523	8134.124023
3209.007813	8162.988281
3207.703125	7963.655762
3206.398438	8224.484375
3205.093750	8220.999023
3203.789063	8139.597168
3202.483398	8164.630371
3201.178711	8022.478516
3199.873047	8131.095215
3198.566406	8042.175293
3197.260742	8160.238281
3195.954102	8204.223633
3194.647461	8035.628906
3193.340820	8062.542969
3192.033203	8051.503418
3190.725586	7913.382813
3189.417969	7739.283203
3188.110352	7895.163574
3186.801758	7846.249512
3185.493164	7880.747559
3184.184570	7718.156738
3182.875000	8004.645996
3181.566406	7906.497070
3180.256836	7859.519531
3178.947266	7899.660645
3177.636719	7763.724609
3176.327148	7773.583496
3175.016602	7862.918945
3173.705078	7846.265625
3172.394531	7649.909668
3171.083008	7852.694824
3169.771484	7921.144043
3168.459961	7715.433594
3167.147461	7725.285645
3165.835938	7704.895996
3164.523438	7833.782715
3163.209961	7760.484375
3161.897461	7604.108887
3160.583984	7715.943848
3159.270508	7720.118164
3157.957031	7720.515137
3156.642578	7643.532715
3155.328125	7711.872559
3154.013672	7653.786621
3152.699219	7642.876953
3151.383789	7547.109375
3150.068359	7547.536621
3148.752930	7465.019043
3147.437500	7640.742676
3146.121094	7520.550781
3144.804688	7554.893555
3143.488281	7604.292480
3142.170898	7487.942383
3140.854492	7665.373047
3139.537109	7635.652832
3138.218750	7449.722168
3136.901367	7572.482910
3135.583008	7469.419922
3134.264648	7454.808105
3132.946289	7459.008789
3131.626953	7391.753418
3130.308594	7497.484863
3128.988281	7392.654297
3127.668945	7319.812012
3126.349609	7421.736816
3125.029297	7390.244141
3123.708984	7326.834473
3122.387695	7481.276855
3121.067383	7273.308105
3119.746094	7264.392578
3118.424805	7386.851563
3117.102539	7402.309570
3115.780273	7372.737305
3114.458984	7408.823242
3113.135742	7499.278320
3111.813477	7317.833984
3110.490234	7376.403320
3109.166992	7397.465820
3107.843750	7277.981934
3106.519531	7250.344238
3105.196289	7134.680664
3103.872070	7286.864746
3102.546875	7350.986816
3101.222656	7233.498047
3099.897461	7099.208984
3098.572266	7208.240723
3097.246094	7397.679688
3095.920898	7096.955078
3094.594727	7387.333008
3093.268555	7038.109863
3091.941406	7362.036621
3090.615234	7205.472656
3089.288086	7172.307617
3087.960938	7254.995605
3086.632813	7378.748047
3085.304688	7091.563477
3083.976563	7135.004395
3082.648438	6978.664063
3081.320313	7233.034180
3079.991211	7158.848633
3078.662109	7166.790039
3077.333008	7342.623047
3076.002930	7087.540039
3074.672852	7074.977051
3073.342773	7025.129883
3072.012695	7169.163574
3070.681641	7150.999512
3069.350586	7091.849121
3068.019531	7096.062012
3066.688477	7016.455566
3065.356445	6933.155273
3064.024414	7171.993652
3062.692383	6986.310547
3061.359375	7079.874512
3060.027344	6968.712891
3058.694336	7170.148438
3057.360352	7032.970703
3056.027344	7092.976074
3054.693359	7015.365234
3053.359375	6999.131348
3052.025391	6990.337891
3050.690430	7081.894531
3049.355469	6967.186035
3048.020508	6971.405762
3046.685547	6975.623535
3045.349609	7016.975586
3044.013672	6855.956055
3042.677734	7030.954590
3041.340820	6816.177246
3040.004883	6870.514648
3038.667969	6948.946289
3037.330078	6856.717285
3035.993164	6977.769043
3034.655273	6913.378906
3033.317383	6984.325195
3031.979492	6888.452637
3030.640625	6788.911621
3029.301758	6837.609863
3027.962891	6919.626953
3026.624023	6816.433594
3025.284180	7026.170898
3023.944336	6860.059570
3022.604492	7021.587891
3021.263672	6849.990234
3019.923828	6941.157227
3018.583008	6749.295410
3017.241211	6770.173828
3015.900391	6883.489258
3014.558594	6817.450684
3013.216797	6849.392090
3011.875000	6890.559082
3010.532227	6837.489258
3009.189453	6649.600586
3007.846680	6755.417969
3006.503906	6898.121582
3005.160156	6800.785156
3003.816406	6834.529297
3002.472656	6855.342773
3001.128906	6844.783203
2999.784180	6741.998047
2998.439453	6751.750488
2997.094727	6687.744141
2995.749023	6850.514648
2994.403320	6734.904785
2993.057617	6494.028809
2991.711914	6682.535645
2990.365234	6771.495605
2989.018555	6733.342285
2987.671875	6809.367676
2986.325195	6780.425781
2984.977539	6705.479004
2983.629883	6855.075684
2982.282227	6642.147949
2980.933594	6727.313477
2979.585938	6678.182617
2978.237305	6568.388672
2976.887695	6712.349609
2975.539063	6681.630859
2974.189453	6582.925781
2972.839844	6651.464355
2971.489258	6729.161133
2970.139648	6681.931152
2968.789063	6563.102051
2967.438477	6727.061035
2966.086914	6448.568848
2964.735352	6606.979492
2963.383789	6697.436523
2962.032227	6630.085938
2960.680664	6619.621582
2959.328125	6781.541504
2957.975586	6386.019531
2956.622070	6540.588867
2955.269531	6594.295410
2953.916016	6560.025391
2952.562500	6566.073242
2951.208008	6493.355469
2949.854492	6521.389160
2948.500000	6516.454102
2947.144531	6595.729492
2945.790039	6601.762695
2944.434570	6651.710938
2943.079102	6456.479492
2941.723633	6382.051270
2940.367188	6640.499023
2939.010742	6505.723145
2937.654297	6491.655762
2936.297852	6603.708984
2934.940430	6494.602051
2933.583008	6553.625488
2932.225586	6466.490723
2930.867188	6472.532227
2929.508789	6484.049316
2928.150391	6459.049316
2926.791992	6434.058105
2925.432617	6420.026367
2924.074219	6449.789063
2922.713867	6494.132813
2921.354492	6398.023926
2919.994141	6446.006836
2918.633789	6417.399414
2917.273438	6534.624512
2915.913086	6312.834961
2914.551758	6473.763184
2913.190430	6474.318848
2911.829102	6494.908691
2910.466797	6353.422363
2909.104492	6426.825195
2907.742188	6267.204102
2906.379883	6469.808594
2905.016602	6430.332031
2903.653320	6463.638672
2902.290039	6475.105469
2900.925781	6455.653320
2899.562500	6448.935547
2898.197266	6345.877441
2896.833008	6390.070801
2895.468750	6381.551758
2894.103516	6373.035645
2892.738281	6244.642578
2891.372070	6228.891602
2890.005859	6347.504883
2888.640625	6400.720703
2887.273438	6435.765625
2885.907227	6340.146973
2884.540039	6157.482422
2883.172852	6246.969727
2881.805664	6289.270508
2880.437500	6306.169922
2879.069336	6163.535645
2877.701172	6338.135254
2876.333008	6177.429199
2874.963867	6391.815430
2873.594727	6298.182129
2872.225586	6171.986816
2870.855469	6272.174805
2869.485352	6341.547363
2868.115234	6347.543945
2866.745117	6311.916992
2865.374023	6374.003418
2864.002930	6389.033691
2862.631836	6306.396484
2861.260742	6187.626953
2859.888672	6289.459961
2858.516602	6346.065918
2857.144531	6256.271973
2855.771484	6363.451172
2854.398438	6214.076172
2853.025391	6183.959961
2851.652344	6319.980469
2850.278320	6280.828125
2848.904297	6259.740723
2847.530273	6175.498047
2846.156250	6269.913574
2844.781250	6270.486816
2843.406250	6218.755859
2842.030273	6322.122070
2840.655273	6319.078125
2839.279297	6380.925781
2837.903320	6260.729980
2836.526367	6275.716797
2835.150391	6110.551270
2833.773438	6365.108398
2832.395508	6199.989746
2831.018555	6137.558594
2829.640625	6120.152344
2828.262695	6226.931641
2826.884766	6304.878906
2825.505859	6267.660645
2824.126953	6246.644043
2822.748047	6214.845703
2821.368164	6226.209961
2819.989258	6073.990234
2818.609375	6101.551758
2817.228516	6152.461914
2815.848633	6260.839355
2814.467773	6171.596680
2813.086914	6145.242188
2811.705078	6120.692871
2810.324219	6241.556152
2808.942383	6030.343750
2807.559570	6249.867676
2806.177734	6099.733398
2804.794922	6150.550781
2803.412109	6077.607422
2802.029297	6031.587402
2800.645508	6057.290039
2799.261719	6004.122070
2797.877930	6001.148926
2796.493164	6035.799316
2795.109375	6022.073242
2793.724609	5931.344727
2792.338867	6143.248535
2790.954102	6056.111328
2789.568359	6056.708984
2788.182617	6025.096191
2786.795898	6050.746582
2785.409180	6137.203613
2784.022461	6144.937500
2782.635742	6022.140137
2781.249023	5945.871094
2779.861328	6048.365723
2778.473633	5984.629883
2777.084961	5972.731445
2775.697266	5862.591309
2774.308594	6072.176270
2772.918945	6097.763672
2771.530273	5932.321289
2770.140625	6075.727539
2768.750977	6079.883789
2767.361328	5944.872559
2765.970703	6106.028809
2764.580078	6103.041504
2763.189453	6039.429199
2761.797852	6009.714355
2760.407227	5864.153809
2759.015625	5903.985352
2757.623047	6077.429199
2756.231445	5823.276855
2754.838867	6087.499512
2753.446289	5963.433105
2752.052734	5940.893555
2750.659180	6010.919922
2749.265625	5991.937988
2747.872070	5926.702637
2746.478516	5961.111816
2745.083984	6018.627930
2743.689453	6070.786133
2742.293945	5914.915039
2740.898438	5922.635254
2739.502930	6076.078613
2738.107422	5994.923340
2736.711914	5897.811523
2735.315430	5900.199707
2733.918945	5959.410156
2732.521484	5793.121582
2731.125000	5866.529785
2729.727539	5796.158203
2728.329102	5929.863770
2726.931641	5976.590820
2725.533203	5936.390137
2724.134766	5809.313477
2722.736328	5802.847168
2721.336914	5782.202148
2719.937500	5765.109863
2718.538086	5900.406250
2717.137695	5973.645508
2715.737305	5873.278320
2714.336914	5820.763184
2712.936523	5895.743652
2711.535156	5937.062012
2710.133789	5847.398926
2708.732422	5837.395508
2707.331055	5809.705078
2705.928711	5852.775391
2704.526367	5853.386230
2703.124023	5852.229004
2701.720703	5706.120605
2700.317383	5773.918457
2698.914063	5825.786621
2697.509766	5734.535156
2696.106445	5842.911133
2694.702148	5778.181152
2693.296875	5805.287598
2691.892578	5834.148438
2690.487305	5991.834961
2689.082031	5833.604492
2687.675781	5851.855957
2686.269531	5838.351074
2684.863281	5893.627441
2683.457031	5918.908203
2682.049805	5704.437012
2680.642578	5861.928711
2679.235352	5760.328125
2677.828125	5757.425781
2676.419922	5738.671875
2675.011719	5698.791992
2673.603516	5822.673828
2672.194336	5773.990723
2670.785156	5640.846191
2669.375977	5740.029785
2667.965820	5858.526367
2666.556641	5811.632324
2665.146484	5678.584473
2663.735352	5774.164063
2662.325195	5683.365723
2660.914063	5701.572754
2659.502930	5749.645508
2658.090820	5766.074707
2656.678711	5803.575195
2655.266602	5767.301270
2653.854492	5711.727051
2652.441406	5822.945801
2651.029297	5746.320313
2649.615234	5722.368652
2648.202148	5817.728027
2646.788086	5741.148438
2645.374023	5729.487305
2643.959961	5623.146973
2642.544922	5713.189941
2641.129883	5748.863281
2639.714844	5681.133301
2638.298828	5664.238281
2636.883789	5551.007813
2635.467773	5716.281250
2634.050781	5736.158203
2632.634766	5626.481445
2631.217773	5770.637207
2629.799805	5767.741699
2628.382813	5577.643066
2626.964844	5667.495605
2625.546875	5801.034180
2624.128906	5675.736328
2622.709961	5644.890137
2621.291016	5591.333984
2619.872070	5672.355957
2618.452148	5727.137695
2617.032227	5677.089844
2615.612305	5606.104004
2614.192383	5603.244629
2612.771484	5654.503906
2611.350586	5632.435547
2609.929688	5603.395508
2608.508789	5710.454102
2607.086914	5592.446777
2605.665039	5655.864258
2604.242188	5555.350586
2602.819336	5669.306152
2601.396484	5511.310547
2599.973633	5691.449219
2598.550781	5493.438965
2597.126953	5635.186035
2595.703125	5592.267090
2594.278320	5596.378418
2592.853516	5595.265625
2591.428711	5569.785156
2590.003906	5619.143066
2588.578125	5614.545898
2587.153320	5677.791016
2585.726563	5633.182129
2584.300781	5395.581055
2582.874023	5504.031738
2581.447266	5431.672852
2580.020508	5613.059570
2578.592773	5406.924316
2577.165039	5452.749512
2575.737305	5401.298340
2574.308594	5459.261230
2572.880859	5558.865723
2571.451172	5481.387695
2570.022461	5424.764160
2568.592773	5491.350098
2567.163086	5417.399902
2565.733398	5478.757324
2564.303711	5345.882813
2562.873047	5540.719727
2561.442383	5361.086426
2560.010742	5356.552246
2558.579102	5447.313477
2557.147461	5437.566895
2555.715820	5292.734375
2554.284180	5466.568359
2552.851563	5361.604980
2551.417969	5324.187988
2549.985352	5288.516113
2548.551758	5346.288574
2547.118164	5421.335938
2545.684570	5361.452148
2544.250000	5317.154297
2542.815430	5350.670410
2541.380859	5339.232422
2539.945313	5405.564453
2538.510742	5554.803223
2537.075195	5408.590820
2535.638672	5226.167969
2534.202148	5247.572754
2532.765625	5450.241211
2531.329102	5321.425781
2529.892578	5284.124023
2528.455078	5274.442871
2527.017578	5354.466309
2525.579102	5208.524902
2524.140625	5198.863770
2522.702148	5342.641113
2521.263672	5381.218262
2519.824219	5447.352539
2518.384766	5294.645020
2516.945313	5272.916504
2515.505859	5223.640137
2514.065430	5274.254883
2512.625000	5176.792969
2511.183594	5287.639648
2509.743164	5233.235840
2508.301758	5328.541016
2506.859375	5208.782227
2505.417969	5140.666992
2503.975586	5184.347656
2502.533203	5313.969238
2501.089844	5206.339844
2499.646484	5177.803223
2498.203125	5192.231934
2496.759766	5294.262207
2495.315430	5190.156250
2493.871094	5283.560059
2492.426758	5244.734863
2490.982422	5312.343750
2489.537109	5266.663086
2488.091797	5166.097168
2486.645508	5183.933594
2485.200195	5232.633301
2483.752930	5114.986328
2482.306641	5167.108398
2480.860352	5212.353516
2479.413086	5178.750977
2477.964844	5160.581543
2476.517578	5173.252930
2475.069336	5266.414063
2473.621094	5025.636230
2472.172852	5187.267578
2470.723633	5246.136230
2469.274414	5113.317383
2467.825195	5170.465820
2466.375000	5119.823730
2464.924805	5099.985840
2463.474609	5083.575195
2462.024414	5181.712891
2460.573242	5035.390625
2459.122070	5080.521973
2457.669922	5214.479492
2456.218750	5061.405273
2454.766602	4992.077148
2453.314453	5016.689941
2451.861328	4996.905762
2450.408203	5093.194336
2448.955078	5010.262207
2447.501953	5074.091797
2446.047852	4953.668457
2444.593750	5184.619141
2443.138672	4967.029297
2441.684570	5023.996094
2440.229492	5070.713379
2438.774414	5096.962402
2437.318359	5027.790527
2435.862305	5118.766602
2434.406250	4881.013184
2432.950195	4995.819824
2431.493164	4896.079590
2430.036133	4852.546387
2428.579102	5060.883301
2427.121094	4995.215820
2425.663086	4829.214355
2424.205078	4904.776367
2422.746094	4883.388184
2421.287109	4906.208496
2419.828125	4952.814453
2418.369141	4914.435547
2416.909180	4872.673340
2415.449219	4883.585938
2413.989258	4948.839355
2412.528320	4905.396973
2411.067383	4873.854980
2409.606445	5012.053223
2408.144531	4827.777832
2406.683594	4736.888672
2405.220703	4786.825195
2403.757813	4821.478027
2402.296875	4771.337891
2400.833984	4843.274414
2399.369141	4889.758789
2397.906250	4704.070313
2396.443359	4831.885254
2394.978516	4817.363281
2393.513672	4809.621094
2392.048828	4710.449707
2390.583984	4768.752930
2389.119141	4659.473633
2387.654297	4760.067383
2386.187500	4752.343262
2384.720703	4693.877441
2383.255859	4713.227539
2381.789063	4768.076172
2380.320313	4756.974609
2378.853516	4696.863770
2377.386719	4787.167480
2375.917969	4735.521484
2374.449219	4775.107422
2372.982422	4753.881836
2371.513672	4707.337891
2370.042969	4665.876465
2368.574219	4639.621582
2367.105469	4738.245117
2365.634766	4691.740723
2364.164063	4641.881348
2362.693359	4678.047852
2361.222656	4646.757324
2359.751953	4630.650879
2358.279297	4692.077148
2356.808594	4667.541992
2355.335938	4533.511719
2353.863281	4618.500977
2352.390625	4590.626465
2350.917969	4665.467773
2349.445313	4610.661133
2347.970703	4603.000488
2346.498047	4666.014160
2345.023438	4575.911621
2343.548828	4537.985840
2342.074219	4641.333496
2340.599609	4482.355957
2339.123047	4570.543945
2337.648438	4650.292969
2336.171875	4622.470703
2334.695313	4492.183105
2333.218750	4541.666016
2331.742188	4544.108887
2330.265625	4536.477051
2328.787109	4599.349121
2327.310547	4514.509277
2325.832031	4520.310547
2324.353516	4511.010742
2322.875000	4580.545410
2321.396484	4510.868652
2319.917969	4447.925781
2318.437500	4519.105957
2316.957031	4509.814941
2315.478516	4451.936523
2313.998047	4451.038086
2312.517578	4518.810059
2311.035156	4427.473145
2309.554688	4399.792480
2308.072266	4457.489258
2306.591797	4448.222168
2305.109375	4430.592285
2303.626953	4386.204102
2302.142578	4440.511230
2300.660156	4478.074707
2299.177734	4320.018066
2297.693359	4324.160156
2296.208984	4350.025391
2294.724609	4397.600586
2293.240234	4390.030273
2291.755859	4349.060059
2290.269531	4458.389160
2288.785156	4360.658691
2287.298828	4234.592773
2285.812500	4348.884277
2284.326172	4379.706055
2282.839844	4262.052246
2281.353516	4332.905762
2279.865234	4405.397461
2278.376953	4271.138184
2276.890625	4260.274414
2275.402344	4272.744629
2273.914063	4256.885742
2272.423828	4199.389160
2270.935547	4315.119629
2269.445313	4275.949707
2267.957031	4171.870605
2266.466797	4222.623535
2264.976563	4235.082031
2263.484375	4244.207520
2261.994141	4296.578125
2260.503906	4164.326172
2259.011719	4228.330078
2257.519531	4252.410645
2256.027344	4208.336426
2254.535156	4144.339355
2253.042969	4253.151855
2251.548828	4155.950195
2250.056641	4155.108887
2248.562500	4157.588379
2247.068359	4221.488281
2245.574219	4104.454102
2244.080078	4073.754150
2242.583984	4162.517090
2241.089844	4065.469482
2239.593750	4185.706543
2238.097656	4103.615234
2236.601563	4155.830078
2235.105469	4145.043945
2233.609375	4092.836914
2232.113281	4131.768066
2230.615234	4056.395020
2229.117188	4073.789063
2227.619141	4011.703369
2226.121094	4096.968262
2224.623047	4026.627441
2223.125000	4078.760498
2221.625000	4137.489746
2220.125000	4141.612793
2218.626953	3975.406738
2217.126953	4118.439941
2215.625000	4043.220215
2214.125000	4030.831787
2212.625000	4051.494385
2211.123047	3956.509277
2209.621094	3968.919922
2208.119141	3882.246338
2206.617188	3982.168457
2205.115234	3902.129395
2203.611328	3899.687256
2202.109375	3958.295166
2200.605469	3856.863525
2199.101563	4063.893555
2197.597656	3949.289551
2196.093750	3956.730957
2194.589844	4020.211426
2193.083984	3862.838379
2191.580078	3904.892578
2190.074219	3958.460449
2188.568359	3895.071777
2187.062500	3955.206055
2185.554688	3895.136230
2184.048828	3816.984863
2182.541016	3854.058838
2181.035156	3937.185791
2179.527344	3929.806152
2178.019531	3905.982910
2176.509766	3745.692871
2175.001953	3855.076904
2173.494141	3908.532959
2171.984375	3904.451904
2170.474609	3859.298584
2168.964844	3870.012451
2167.455078	3808.460938
2165.943359	3832.315918
2164.433594	3764.230469
2162.921875	3786.442871
2161.412109	3749.572021
2159.900391	3804.590576
2158.386719	3875.989014
2156.875000	3827.642090
2155.363281	3741.603516
2153.849609	3731.006592
2152.335938	3695.829590
2150.824219	3806.503418
2149.310547	3687.772705
2147.794922	3737.798584
2146.281250	3809.092773
2144.765625	3801.768555
2143.251953	3694.593018
2141.736328	3692.204346
2140.220703	3645.636719
2138.705078	3684.157227
2137.187500	3721.026367
2135.671875	3720.268555
2134.154297	3688.447021
2132.636719	3731.830322
2131.121094	3618.304688
2129.601563	3581.620850
2128.083984	3729.550293
2126.566406	3652.026123
2125.046875	3693.739014
2123.527344	3635.844482
2122.007813	3581.238281
2120.488281	3619.675293
2118.968750	3563.462402
2117.449219	3623.093994
2115.927734	3633.771973
2114.408203	3644.445801
2112.886719	3588.272705
2111.365234	3611.990479
2109.843750	3665.031738
2108.320313	3617.034912
2106.798828	3611.410400
2105.275391	3635.103271
2103.751953	3515.496094
2102.228516	3531.058594
2100.705078	3595.443848
2099.181641	3554.027588
2097.656250	3561.437500
2096.132813	3533.057861
2094.607422	3509.568604
2093.082031	3408.041992
2091.556641	3560.156982
2090.031250	3559.430176
2088.503906	3496.954590
2086.978516	3510.862549
2085.451172	3375.327393
2083.923828	3483.445313
2082.396484	3403.175049
2080.869141	3483.646240
2079.341797	3478.065674
2077.812500	3457.883545
2076.283203	3437.709229
2074.755859	3454.849121
2073.226563	3360.086914
2071.697266	3528.019043
2070.166016	3319.810059
2068.636719	3445.543945
2067.105469	3341.138184
2065.574219	3411.735596
2064.042969	3354.349609
2062.511719	3301.844971
2060.980469	3484.118652
2059.447266	3313.444824
2057.916016	3351.607666
2056.382813	3388.136963
2054.849609	3395.532715
2053.316406	3406.159912
2051.783203	3280.951904
2050.248047	3332.015381
2048.714844	3341.031982
2047.179688	3298.331543
2045.644531	3331.586670
2044.109375	3309.905273
2042.574219	3409.360840
2041.039063	3248.806396
2039.501953	3278.814941
2037.964844	3352.390381
2036.429688	3312.974854
2034.892578	3280.028809
2033.353516	3301.940430
2031.816406	3254.495117
2030.279297	3195.782471
2028.740234	3201.576416
2027.201172	3239.602539
2025.662109	3230.882080
2024.123047	3320.441162
2022.583984	3192.511475
2021.042969	3235.339111
2019.503906	3200.864258
2017.962891	3216.306152
2016.421875	3217.256836
2014.880859	3260.043213
2013.337891	3236.852539
2011.796875	3189.544189
2010.253906	3108.484863
2008.712891	3140.003418
2007.169922	3165.079102
2005.626953	3027.824707
2004.082031	3040.058350
2002.539063	3119.758301
2000.994141	3172.121338
1999.451172	3099.209473
1997.906250	3148.343750
1996.361328	3065.835449
1994.816406	3061.996826
1993.269531	3077.413818
1991.724609	2953.261963
1990.177734	3129.077637
1988.630859	3160.505859
1987.083984	2959.460449
1985.537109	2955.647461
1983.990234	3038.371826
1982.441406	3092.222656
1980.892578	3040.328369
1979.343750	3007.673828
1977.794922	3098.324951
1976.246094	3064.070557
1974.697266	2993.017334
1973.146484	2912.392090
1971.597656	2990.188477
1970.046875	2981.576660
1968.496094	2990.559570
1966.945313	2978.753174
1965.394531	2960.556885
1963.841797	3006.297852
1962.289063	3015.267578
1960.738281	2950.744629
1959.185547	3015.625977
1957.632813	2970.292236
1956.078125	2910.607422
1954.525391	2961.090088
1952.970703	2885.471924
1951.416016	2832.223389
1949.863281	2960.859619
1948.306641	2977.795654
1946.751953	2873.531982
1945.197266	2938.307617
1943.640625	2920.169678
1942.083984	2725.143799
1940.527344	2950.835205
1938.970703	2832.346436
1937.414063	2850.875977
1935.857422	2848.697021
1934.298828	2781.246338
1932.740234	2858.666748
1931.181641	2803.972412
1929.623047	2921.131592
1928.064453	2852.130127
1926.505859	2883.350586
1924.945313	2744.423096
1923.384766	2866.266602
1921.826172	2811.636963
1920.263672	2734.782959
1918.703125	2807.302002
1917.142578	2762.248291
1915.580078	2823.614746
1914.019531	2802.392334
1912.457031	2792.290527
1910.894531	2759.973389
1909.330078	2807.008057
1907.767578	2735.039551
1906.203125	2732.889893
1904.640625	2771.971680
1903.076172	2746.032959
1901.511719	2680.476318
1899.947266	2762.334229
1898.380859	2741.166504
1896.816406	2675.650879
1895.250000	2730.533447
1893.683594	2663.463135
1892.117188	2692.994385
1890.550781	2752.587646
1888.984375	2736.194824
1887.416016	2616.965088
1885.847656	2549.986572
1884.281250	2702.871094
1882.712891	2703.894775
1881.142578	2614.806641
1879.574219	2668.006592
1878.003906	2648.493164
1876.435547	2662.166016
1874.865234	2622.126709
1873.294922	2575.786865
1871.724609	2639.991699
1870.152344	2614.188965
1868.582031	2578.927002
1867.009766	2576.816650
1865.437500	2557.352783
1863.865234	2500.041504
1862.292969	2532.642090
1860.720703	2465.899170
1859.146484	2537.901367
1857.574219	2505.856934
1856.000000	2511.642090
1854.425781	2570.986816
1852.851563	2518.479736
1851.275391	2584.097168
1849.701172	2563.096191
1848.125000	2534.233398
1846.548828	2544.725830
1844.972656	2459.235840
1843.396484	2516.931641
1841.820313	2536.857178
1840.242188	2430.979736
1838.664063	2498.077881
1837.087891	2484.987061
1835.509766	2409.043213
1833.929688	2513.811035
1832.351563	2448.887939
1830.773438	2486.072998
1829.193359	2386.638916
1827.613281	2463.066895
1826.033203	2426.458740
1824.453125	2377.312012
1822.871094	2411.334961
1821.291016	2410.836182
1819.708984	2433.860352
1818.126953	2499.207764
1816.544922	2489.285156
1814.962891	2375.928955
1813.380859	2400.507568
1811.796875	2445.441650
1810.214844	2432.405273
1808.630859	2402.148682
1807.046875	2406.348145
1805.460938	2374.543945
1803.876953	2381.876953
1802.292969	2414.241211
1800.707031	2344.911133
1799.121094	2375.705322
1797.535156	2423.686768
1795.949219	2390.354248
1794.361328	2271.069336
1792.775391	2354.984375
1791.187500	2437.302246
1789.599609	2410.242188
1788.011719	2300.421875
1786.423828	2399.874756
1784.835938	2286.979492
1783.246094	2320.842041
1781.656250	2271.987305
1780.066406	2349.521484
1778.476563	2264.806152
1776.886719	2295.525635
1775.296875	2231.124756
1773.705078	2331.984863
1772.113281	2289.421875
1770.523438	2265.574463
1768.929688	2335.207275
1767.337891	2351.855469
1765.746094	2331.123779
1764.152344	2216.988281
1762.558594	2191.623291
1760.966797	2231.630371
1759.371094	2294.959229
1757.777344	2246.259766
1756.183594	2259.790771
1754.587891	2194.014160
1752.992188	2240.197021
1751.396484	2253.720459
1749.800781	2251.698486
1748.205078	2218.604248
1746.609375	2236.783203
1745.011719	2230.106689
1743.414063	2190.826416
1741.816406	2187.266602
1740.218750	2225.612793
1738.621094	2277.908447
1737.021484	2237.098877
1735.423828	2140.468018
1733.824219	2150.878418
1732.224609	2145.780029
1730.625000	2163.935059
1729.023438	2158.835938
1727.423828	2164.584961
1725.822266	2156.389160
1724.220703	2224.088135
1722.619141	2167.880127
1721.017578	2091.569336
1719.416016	2221.153076
1717.812500	2146.409912
1716.210938	2101.094727
1714.607422	2174.907715
1713.003906	2121.872314
1711.400391	2093.598633
1709.794922	2079.249756
1708.191406	2092.727295
1706.585938	2086.110596
1704.980469	2067.136963
1703.375000	2052.805176
1701.769531	2080.175049
1700.164063	2087.461914
1698.556641	2029.911865
1696.949219	2044.922607
1695.341797	2019.808472
1693.734375	2010.131592
1692.126953	2065.238281
1690.519531	2049.387695
1688.910156	1998.083496
1687.300781	2056.240967
1685.691406	2060.435791
1684.082031	2089.281006
1682.472656	2044.172607
1680.861328	2031.425537
1679.251953	2071.037109
1677.640625	2015.183960
1676.029297	1997.833130
1674.417969	1983.567017
1672.806641	1953.921509
1671.193359	1987.354492
1669.580078	1982.326538
1667.968750	1941.936523
1666.355469	1903.100586
1664.740234	1984.160278
1663.126953	1948.404663
1661.513672	1992.550171
1659.898438	1939.911987
1658.283203	1977.898071
1656.667969	1968.273560
1655.052734	1992.422729
1653.435547	1901.461060
1651.820313	1917.942139
1650.203125	1951.290527
1648.585938	1878.798706
1646.968750	1947.409180
1645.351563	1856.551270
1643.732422	1955.792480
1642.115234	1926.267944
1640.496094	1936.590454
1638.876953	1957.631104
1637.257813	1971.005371
1635.638672	1909.347534
1634.017578	1872.208740
1632.398438	1910.080444
1630.777344	1834.701904
1629.156250	1968.947388
1627.535156	1869.114868
1625.912109	1893.192017
1624.291016	1905.027710
1622.667969	1861.828735
1621.044922	1867.552734
1619.421875	1893.137573
1617.798828	1848.440308
1616.175781	1846.526489
1614.550781	1936.233154
1612.927734	1841.174194
1611.302734	1843.841797
1609.677734	1895.341553
1608.050781	1891.893677
1606.425781	1847.261230
1604.798828	1852.975098
1603.173828	1840.389282
1601.546875	1782.075317
1599.919922	1828.950317
1598.291016	1799.615234
1596.664063	1829.708252
1595.035156	1804.954590
1593.406250	1798.485352
1591.777344	1787.451172
1590.148438	1784.032471
1588.519531	1791.268433
1586.888672	1854.799438
1585.259766	1807.252075
1583.628906	1787.101318
1581.998047	1756.314697
1580.367188	1769.629517
1578.734375	1751.018921
1577.103516	1793.202759
1575.470703	1815.617188
1573.837891	1704.347778
1572.205078	1773.851196
1570.572266	1740.074829
1568.937500	1715.421021
1567.304688	1742.380981
1565.669922	1725.323975
1564.035156	1797.783936
1562.400391	1668.479004
1560.765625	1721.206055
1559.128906	1652.617798
1557.492188	1723.515869
1555.857422	1732.247559
1554.220703	1753.097168
1552.582031	1710.312500
1550.945313	1705.410034
1549.308594	1674.767090
1547.669922	1674.415649
1546.031250	1643.791870
1544.392578	1691.872681
1542.753906	1711.186401
1541.113281	1751.669312
1539.474609	1669.634644
1537.833984	1704.060913
1536.193359	1684.050903
1534.552734	1626.264160
1532.910156	1633.478149
1531.269531	1669.393433
1529.626953	1650.917480
1527.986328	1630.939087
1526.343750	1635.125977
1524.699219	1607.611572
1523.056641	1637.457397
1521.412109	1620.515869
1519.769531	1692.585449
1518.125000	1642.458374
1516.480469	1633.065796
1514.835938	1614.631470
1513.189453	1566.059204
1511.544922	1595.869263
1509.898438	1615.120117
1508.251953	1607.248901
1506.605469	1540.646606
1504.957031	1562.908081
1503.310547	1610.751343
1501.662109	1590.846924
1500.013672	1590.512329
1498.365234	1618.761841
1496.716797	1588.339111
1495.068359	1595.523926
1493.417969	1641.796021
1491.769531	1600.865234
1490.119141	1534.403320
1488.468750	1573.146118
1486.816406	1616.379150
1485.166016	1543.947876
1483.513672	1500.077148
1481.861328	1549.302979
1480.208984	1562.485352
1478.556641	1547.150146
1476.904297	1525.819946
1475.250000	1480.498657
1473.597656	1555.171021
1471.943359	1530.853516
1470.289063	1565.009277
1468.634766	1594.654297
1466.978516	1534.381592
1465.324219	1617.952148
1463.667969	1488.801392
1462.011719	1488.487671
1460.355469	1563.031860
1458.699219	1483.369873
1457.041016	1517.477295
1455.382813	1493.218018
1453.726563	1512.349854
1452.068359	1544.933716
1450.408203	1546.103271
1448.750000	1465.050049
1447.089844	1487.160522
1445.431641	1494.318481
1443.771484	1516.413452
1442.111328	1529.536743
1440.451172	1521.747192
1438.789063	1515.453979
1437.126953	1459.902710
1435.466797	1461.087036
1433.804688	1435.412842
1432.142578	1463.454102
1430.478516	1473.585571
1428.816406	1486.695068
1427.152344	1450.600708
1425.488281	1442.841797
1423.824219	1445.517578
1422.160156	1491.399536
1420.494141	1455.334351
1418.830078	1462.473389
1417.164063	1483.010132
1415.498047	1454.412476
1413.832031	1440.710205
1412.166016	1397.253174
1410.498047	1362.740723
1408.830078	1426.410767
1407.164063	1473.695801
1405.494141	1404.993164
1403.826172	1429.965942
1402.158203	1405.885498
1400.488281	1418.960815
1398.818359	1378.552002
1397.150391	1387.171753
1395.478516	1464.092285
1393.808594	1376.193237
1392.138672	1418.945557
1390.466797	1434.968872
1388.794922	1437.632568
1387.123047	1366.129517
1385.451172	1373.255615
1383.777344	1404.101440
1382.105469	1411.216187
1380.431641	1330.886475
1378.757813	1400.246826
1377.083984	1379.210449
1375.410156	1355.220703
1373.734375	1371.222656
1372.060547	1314.673828
1370.384766	1361.761230
1368.708984	1339.274902
1367.033203	1324.195923
1365.355469	1343.145508
1363.679688	1326.593018
1362.001953	1317.440308
1360.324219	1365.945068
1358.646484	1313.926392
1356.968750	1291.483032
1355.289063	1320.756470
1353.609375	1302.752075
1351.931641	1298.045898
1350.250000	1287.435913
1348.570313	1300.447998
1346.890625	1338.542969
1345.208984	1333.832764
1343.529297	1270.117920
1341.847656	1277.222900
1340.164063	1266.630371
1338.482422	1298.794800
1336.800781	1270.515015
1335.117188	1289.402344
1333.433594	1262.609619
1331.750000	1260.868896
1330.066406	1295.945435
1328.382813	1286.836304
1326.697266	1265.954712
1325.011719	1299.535889
1323.326172	1288.960205
1321.640625	1282.802246
1319.955078	1228.110718
1318.267578	1242.554932
1316.582031	1245.231445
1314.894531	1247.906860
1313.207031	1178.573364
1311.517578	1259.130859
1309.830078	1266.208008
1308.140625	1242.441406
1306.453125	1255.392212
1304.763672	1225.765991
1303.072266	1247.520630
1301.382813	1226.712646
1299.693359	1263.128174
1298.001953	1215.924194
1296.310547	1209.800171
1294.619141	1167.025879
1292.927734	1200.491211
1291.234375	1252.993774
1289.542969	1183.864014
1287.849609	1252.461060
1286.156250	1240.478394
1284.462891	1181.644897
1282.767578	1179.929688
1281.074219	1204.560425
1279.378906	1220.400635
1277.683594	1145.528076
1275.988281	1195.015869
1274.292969	1169.901245
1272.595703	1172.576538
1270.900391	1178.174072
1269.203125	1189.614868
1267.505859	1161.600220
1265.808594	1196.412720
1264.109375	1117.290527
1262.412109	1136.035400
1260.712891	1207.328125
1259.013672	1180.798706
1257.314453	1209.732666
1255.613281	1159.870483
1253.914063	1121.698730
1252.212891	1156.459961
1250.511719	1182.458130
1248.810547	1145.763306
1247.109375	1136.774902
1245.408203	1142.361084
1243.705078	1070.735352
1242.001953	1130.222656
1240.298828	1073.191406
1238.595703	1103.535645
1236.892578	1145.511230
1235.187500	1084.147339
1233.482422	1129.018799
1231.777344	1137.505737
1230.072266	1180.892334
1228.367188	1123.934814
1226.662109	1136.778320
1224.955078	1097.294922
1223.248047	1120.309937
1221.541016	1096.826904
1219.833984	1066.091675
1218.125000	1081.837769
1216.417969	1099.028809
1214.708984	1126.373047
1213.000000	1085.499023
1211.291016	1114.285278
1209.580078	1096.640503
1207.871094	1071.751831
1206.160156	1133.871460
1204.449219	1058.247437
1202.738281	1107.299194
1201.027344	1040.407227
1199.314453	1050.326172
1197.603516	1057.343994
1195.890625	1061.462402
1194.177734	1071.370361
1192.464844	1102.986206
1190.750000	1044.863525
1189.037109	1018.596619
1187.322266	1077.687988
1185.607422	1074.565186
1183.892578	1017.943848
1182.177734	1090.008057
1180.460938	1069.540527
1178.744141	1064.976807
1177.027344	1024.297363
1175.310547	1042.855591
1173.593750	996.421814
1171.876953	1056.847534
1170.158203	1017.647827
1168.439453	977.021606
1166.720703	1008.555481
1165.001953	1031.420532
1163.281250	1021.104248
1161.562500	1010.792297
1159.841797	1026.433838
1158.121094	1031.979492
1156.400391	982.764587
1154.677734	1025.775146
1152.957031	1018.353638
1151.234375	1038.296753
1149.511719	1019.357544
1147.789063	950.045166
1146.066406	1000.212158
1144.341797	959.710327
1142.619141	968.136047
1140.894531	1015.390320
1139.169922	973.473145
1137.445313	981.890320
1135.718750	962.995056
1133.994141	1007.335693
1132.267578	1011.429932
1130.541016	969.558167
1128.814453	1000.944092
1127.085938	974.885742
1125.359375	991.902344
1123.630859	977.338257
1121.902344	1011.565002
1120.173828	982.657471
1118.443359	959.499146
1116.714844	946.388123
1114.984375	921.813782
1113.253906	971.781860
1111.523438	948.645447
1109.792969	947.009277
1108.060547	913.861328
1106.330078	963.788025
1104.597656	960.717712
1102.865234	950.491333
1101.132813	941.700500
1099.398438	958.668579
1097.666016	945.588013
1095.931641	936.803650
1094.197266	896.564575
1092.462891	924.964539
1090.726563	966.216064
1088.992188	898.845337
1087.255859	981.516907
1085.519531	905.601318
1083.783203	928.256226
1082.046875	870.945679
1080.308594	859.338806
1078.570313	907.677917
1076.833984	877.518860
1075.093750	903.008301
1073.355469	894.256775
1071.617188	905.472168
1069.876953	933.790283
1068.136719	906.508362
1066.396484	889.213257
1064.656250	896.145691
1062.914063	913.045959
1061.173828	968.389648
1059.431641	894.144043
1057.689453	865.481995
1055.947266	873.834961
1054.203125	946.213806
1052.460938	852.120544
1050.716797	920.205994
1048.972656	924.273926
1047.228516	891.377075
1045.484375	869.865051
1043.738281	875.362061
1041.992188	875.173645
1040.246094	893.450928
1038.500000	891.838501
1036.753906	941.340210
1035.005859	921.264343
1033.259766	926.742859
1031.511719	949.245789
1029.763672	958.971558
1028.015625	941.745544
1026.265625	916.018982
1024.515625	941.339966
1022.767578	996.414795
1021.015625	976.361206
1019.265625	959.149658
1017.515625	958.942993
1015.763672	957.320251
1014.011719	992.510132
1012.259766	997.958435
1010.507813	1043.031006
1008.755859	1027.241943
1007.001953	1046.825317
1005.248047	1069.228760
1003.494141	1026.577637
1001.740234	1054.630615
999.986328	1112.352905
998.230469	1088.090210
996.476563	1141.541992
994.720703	1146.945679
992.962891	1224.368774
991.207031	1267.873047
989.451172	1377.702759
987.693359	1415.510010
985.935547	1456.122681
984.177734	1427.595093
982.419922	1499.215454
980.660156	1496.071777
978.900391	1485.880493
977.140625	1488.378662
975.380859	1526.104248
973.621094	1476.465332
971.861328	1425.439087
970.099609	1509.625244
968.337891	1475.508911
966.576172	1435.776733
964.814453	1456.576416
963.050781	1428.121338
961.289063	1465.794067
959.525391	1440.161987
957.761719	1437.038574
955.998047	1365.032227
954.232422	1436.417480
952.466797	1408.003174
950.703125	1397.864502
948.937500	1462.173218
947.169922	1447.814331
945.404297	1450.309204
943.636719	1468.243408
941.871094	1411.791016
940.103516	1369.393677
938.335938	1376.111206
936.566406	1273.433960
934.798828	1166.594604
933.029297	1146.716187
931.259766	962.864990
929.490234	978.070374
927.718750	909.212463
925.949219	858.592590
924.177734	845.803711
922.406250	894.621826
920.634766	881.830566
918.863281	863.447083
917.089844	843.672363
915.316406	867.269653
913.542969	808.344055
911.769531	809.567200
909.996094	869.502075
908.220703	835.771057
906.447266	807.643860
904.671875	845.187988
902.896484	814.277405
901.119141	795.947754
899.343750	801.359680
897.566406	831.893433
895.789063	791.243896
894.011719	817.580933
892.234375	779.741760
890.455078	808.858948
888.677734	807.289307
886.898438	812.690186
885.119141	806.939209
883.337891	781.683411
881.558594	801.016907
879.777344	750.703369
877.996094	803.454346
876.214844	796.319214
874.433594	783.619629
872.650391	823.804871
870.869141	752.671814
869.085938	790.064331
867.302734	778.767578
865.519531	781.379211
863.734375	749.238403
861.951172	753.244995
860.166016	754.470886
858.380859	791.814026
856.593750	787.475525
854.808594	795.635742
853.021484	773.251038
851.234375	748.100098
849.447266	811.768982
847.660156	778.296509
845.873047	754.547791
844.083984	782.118530
842.294922	775.016357
840.505859	769.303406
838.716797	760.821167
836.925781	792.522949
835.136719	825.596130
833.345703	848.960388
831.554688	785.083008
829.763672	863.818787
827.970703	858.094849
826.179688	844.070984
824.386719	835.586853
822.593750	886.580566
820.798828	855.965637
819.005859	848.866760
817.210938	816.891052
815.417969	787.692993
813.621094	802.719360
811.826172	787.350159
810.031250	817.561157
808.234375	831.190308
806.437500	793.738159
804.640625	797.705688
802.843750	811.330078
801.046875	793.219788
799.248047	769.600403
797.449219	795.632080
795.650391	787.187134
793.851563	838.013123
792.050781	840.586609
790.251953	841.781128
788.451172	856.749207
786.650391	848.299866
784.849609	850.868591
783.046875	816.270386
781.244141	831.230774
779.443359	809.034973
777.640625	832.243958
775.835938	797.679749
774.033203	786.505737
772.228516	784.959534
770.423828	839.764709
768.619141	802.480591
766.814453	829.781738
765.009766	874.926575
763.203125	845.898254
761.396484	844.340759
759.589844	900.433655
757.783203	849.461548
755.974609	864.368286
754.167969	846.347351
752.359375	862.619568
750.550781	819.926697
748.740234	848.534790
746.931641	774.341675
745.121094	800.206665
743.310547	764.414063
741.500000	766.986328
739.689453	754.494934
737.876953	740.639893
736.066406	669.304626
734.253906	697.895264
732.441406	711.424011
730.626953	674.337280
728.814453	696.070313
727.000000	684.980347
725.185547	665.693665
723.371094	680.581055
721.556641	654.471985
719.740234	684.381592
717.925781	647.357117
716.109375	671.793396
714.291016	656.630005
712.474609	637.378662
710.658203	654.978210
708.839844	665.748840
707.021484	686.062317
705.203125	676.366699
703.382813	689.852173
701.564453	627.001099
699.744141	656.844299
697.923828	641.713623
696.103516	659.281067
694.283203	633.261536
692.460938	645.376892
690.638672	679.267029
688.816406	670.952515
686.994141	666.723633
685.171875	691.064087
683.347656	660.991333
681.523438	662.206299
679.699219	636.231323
677.875000	655.120300
676.050781	680.795349
674.224609	672.494751
672.398438	673.705627
670.572266	681.705872
668.746094	661.191223
666.917969	669.190552
665.091797	656.830078
663.263672	658.042847
661.435547	640.264160
659.607422	660.466675
657.777344	645.406982
655.947266	633.065002
654.119141	654.611023
652.287109	677.502502
650.457031	662.452087
648.626953	702.939026
646.794922	724.450623
644.962891	736.475952
643.130859	743.081970
641.298828	765.923645
639.464844	790.108154
637.630859	819.692505
635.796875	827.626526
633.962891	840.965149
632.128906	836.725281
630.292969	840.595886
628.458984	880.945557
626.623047	841.577515
624.785156	888.661926
622.949219	866.862610
621.111328	811.323975
619.275391	859.733459
617.437500	833.906616
615.597656	795.949524
613.759766	833.540161
611.919922	829.311523
610.080078	802.165649
608.240234	741.334656
606.400391	838.197754
604.560547	829.929749
602.718750	824.359253
600.876953	883.432617
599.035156	907.473511
597.193359	862.852478
595.349609	877.466553
593.507813	862.472900
591.664063	875.735291
589.820313	880.922241
587.974609	867.282166
586.130859	849.615051
584.285156	830.611633
582.439453	830.428772
580.593750	836.963196
578.748047	854.239807
576.900391	832.566101
575.052734	797.476440
573.205078	801.327576
571.357422	766.260071
569.509766	791.583008
567.660156	788.725891
565.810547	791.234253
563.960938	764.244385
562.111328	806.971497
560.259766	777.309509
558.410156	829.394043
556.558594	766.250122
554.707031	767.420532
552.855469	769.929382
551.001953	771.098389
549.148438	793.681458
547.294922	765.405884
545.441406	774.601929
543.587891	826.594849
541.732422	857.168945
539.878906	911.794556
538.023438	953.029480
536.167969	1010.282349
534.310547	1087.550781
532.455078	1289.010986
530.597656	1495.723999
528.740234	1950.687988
526.882813	3076.895020
525.023438	6368.634277
523.166016	14510.395508
521.306641	24026.578125
519.447266	22034.060547
517.585938	10543.238281
515.726563	4347.275391
513.865234	2439.054688
512.003906	1684.308228
510.142578	1374.859253
508.281250	1134.807495
506.417969	1049.331909
504.556641	852.060913
502.693359	838.562134
500.828125	785.146545
498.964844	738.406799
497.101563	714.300598
495.236328	750.049316
493.371094	707.336914
491.505859	687.241211
489.638672	687.089233
487.771484	689.594727
485.906250	678.814941
484.039063	686.633484
482.169922	626.729858
480.302734	633.228821
478.433594	627.779785
476.564453	656.833496
474.695313	655.361511
472.826172	726.839355
470.955078	708.113708
469.083984	796.783020
467.212891	735.635132
465.341797	768.601624
463.470703	851.899048
461.597656	821.244873
459.724609	864.764771
457.851563	947.985352
455.978516	982.191833
454.105469	1062.702637
452.230469	1071.729126
450.355469	1121.759155
448.480469	1147.961426
446.605469	1180.763062
444.728516	1118.369751
442.851563	1160.414917
440.976563	1115.231323
439.097656	1093.847046
437.220703	1053.981201
435.341797	1026.017334
433.464844	963.740784
431.585938	949.008179
429.705078	958.034973
427.826172	938.032776
425.945313	956.291077
424.064453	911.242126
422.183594	907.084656
420.302734	954.336609
418.421875	972.574829
416.539063	1056.682861
414.656250	1135.484375
412.773438	1262.978882
410.888672	1622.152954
409.005859	2278.671631
407.121094	3266.555420
405.236328	4455.318359
403.351563	4754.266602
401.464844	3991.697266
399.580078	2806.059570
397.693359	1798.423950
395.806641	1330.117554
393.917969	1120.887573
392.031250	1116.697266
390.142578	1548.580688
388.253906	2501.603516
386.365234	3123.355469
384.476563	2411.235352
382.585938	1593.135132
380.695313	1125.705200
378.804688	1086.103394
376.914063	992.750549
375.023438	982.040710
373.130859	874.333130
371.238281	826.958740
369.345703	860.841614
367.453125	783.361938
365.558594	766.161865
363.666016	686.118835
361.771484	718.693542
359.875000	698.901550
357.980469	717.065247
356.083984	680.275452
354.189453	686.663696
352.292969	695.664307
350.394531	686.357971
348.498047	667.906372
346.599609	672.984741
344.701172	620.575867
342.802734	653.092285
340.904297	675.147034
339.003906	634.522949
337.105469	656.571899
335.205078	638.155334
333.302734	622.356384
331.402344	639.175476
329.500000	653.378662
327.597656	628.459717
325.695313	684.373108
323.792969	646.425476
321.890625	631.948547
319.986328	656.558899
318.082031	685.065430
316.177734	660.172485
314.271484	665.232544
312.367188	674.194946
310.460938	707.876892
308.554688	663.486572
306.648438	742.679077
304.740234	751.615967
302.833984	767.049255
300.925781	729.184082
299.017578	730.320862
297.107422	656.102722
295.199219	680.635803
293.289063	627.239929
291.378906	676.436951
289.468750	658.113159
287.556641	626.819885
285.646484	656.521790
283.734375	668.049866
281.822266	626.400024
279.910156	648.302368
277.996094	611.860718
276.082031	592.283630
274.167969	621.953247
272.253906	590.723572
270.339844	616.494690
268.423828	564.562195
266.507813	589.032959
264.591797	612.198486
262.675781	587.475647
260.759766	614.512207
258.841797	572.985352
256.923828	563.805298
255.005859	559.800720
253.085938	608.792480
251.167969	606.071777
249.248047	564.593018
247.328125	551.549866
245.408203	605.665100
243.486328	569.378540
241.566406	573.123596
239.644531	589.772217
237.722656	590.930481
235.798828	568.869019
233.876953	586.796936
231.953125	633.083069
230.029297	618.761353
228.105469	596.713257
226.179688	626.215332
224.253906	602.887085
222.330078	591.160645
220.402344	609.055237
218.476563	583.171692
216.550781	619.078857
214.623047	554.601257
212.695313	605.936584
210.767578	532.487305
208.837891	609.522705
206.908203	566.960449
204.980469	578.401428
203.048828	582.126892
201.119141	564.009705
199.189453	581.865845
197.257813	548.346558
195.326172	585.456543
193.394531	545.533386
191.460938	553.110962
189.529297	564.534119
187.595703	574.669434
185.662109	592.494873
183.726563	569.282898
181.792969	587.101440
179.857422	554.929810
177.921875	540.710938
175.986328	527.779358
174.048828	512.292114
172.113281	565.955627
170.175781	522.303284
168.238281	531.145081
166.298828	513.111633
164.361328	519.392883
162.421875	507.765137
160.482422	562.635925
158.542969	543.333069
156.601563	571.330139
154.662109	495.808228
152.720703	534.023865
150.779297	524.962891
148.835938	547.830750
146.894531	513.236511
144.951172	542.478760
143.007813	535.976135
141.064453	521.821289
139.119141	489.814972
137.175781	522.861877
135.230469	509.994415
133.285156	453.792938
131.337891	481.727905
129.392578	467.604126
127.445313	463.677399
125.498047	506.873840
123.550781	478.747925
121.601563	471.002289
119.652344	477.259735
117.705078	438.980103
115.753906	442.697632
113.804688	464.219116
111.853516	436.140564
109.904297	386.463165
107.953125	357.143738
106.000000	280.822021
104.048828	221.049881
