#Wave		#Intensity
5504.711914	2120.932617
5503.824219	2090.194336
5502.936523	2061.897705
5502.048828	2167.695068
5501.160156	2103.086426
5500.272461	2002.197876
5499.383789	2158.206543
5498.496094	2107.590088
5497.607422	2107.229248
5496.718750	2081.753662
5495.830078	2159.519531
5494.940430	2047.566040
5494.051758	2008.167847
5493.162109	2161.199463
5492.272461	2038.150269
5491.382813	2132.582764
5490.493164	2031.878052
5489.603516	2090.051514
5488.712891	2145.418945
5487.823242	2175.695313
5486.932617	2155.825684
5486.041992	2252.925293
5485.151367	2152.302979
5484.260742	2176.989258
5483.369141	2151.565918
5482.478516	2190.158447
5481.586914	2011.706787
5480.695313	2139.332764
5479.803711	2130.621826
5478.912109	2180.315186
5478.020508	2154.916992
5477.127930	2148.987549
5476.236328	2131.941895
5475.343750	2142.693115
5474.451172	2114.539795
5473.558594	2119.733643
5472.666016	2213.811768
5471.772461	2199.546387
5470.879883	2257.480713
5469.986328	2132.162598
5469.092773	2165.106445
5468.199219	2231.342773
5467.305664	2183.788330
5466.411133	2216.706055
5465.517578	2177.491943
5464.623047	2138.291260
5463.728516	2243.295654
5462.833984	2248.456055
5461.939453	2225.894775
5461.044922	2183.940674
5460.150391	2194.650391
5459.254883	2224.750244
5458.359375	2257.609619
5457.463867	2185.212891
5456.568359	2215.298584
5455.672852	2206.612793
5454.777344	2319.729492
5453.880859	2266.745361
5452.984375	2211.012207
5452.087891	2265.968018
5451.191406	2224.085205
5450.294922	2328.804199
5449.398438	2356.057861
5448.500977	2261.648926
5447.604492	2277.847168
5446.707031	2211.122803
5445.809570	2252.194824
5444.912109	2293.252686
5444.013672	2232.084717
5443.116211	2342.181885
5442.217773	2253.411133
5441.320313	2327.572998
5440.421875	2274.722412
5439.523438	2285.372559
5438.624023	2304.297607
5437.725586	2331.493896
5436.826172	2303.506836
5435.927734	2247.947021
5435.028320	2316.504883
5434.128906	2343.679932
5433.229492	2315.709717
5432.329102	2213.328125
5431.429688	2251.530029
5430.529297	2333.804688
5429.628906	2228.717773
5428.728516	2277.914795
5427.828125	2318.833008
5426.927734	2290.899902
5426.026367	2152.855957
5425.125977	2334.153809
5424.224609	2256.695068
5423.323242	2333.352295
5422.421875	2360.462646
5421.520508	2387.563721
5420.618164	2323.899658
5419.716797	2370.245361
5418.814453	2210.382813
5417.912109	2317.204590
5417.009766	2278.330566
5416.107422	2283.434570
5415.205078	2255.568848
5414.301758	2400.765625
5413.399414	2342.678711
5412.496094	2284.611572
5411.592773	2380.310059
5410.689453	2396.370850
5409.785156	2478.294434
5408.881836	2376.338867
5407.977539	2439.032471
5407.073242	2328.889404
5406.168945	2465.620361
5405.264648	2396.642822
5404.360352	2464.772705
5403.456055	2335.512207
5402.550781	2365.258789
5401.645508	2433.358887
5400.740234	2413.761963
5399.834961	2388.692871
5398.929688	2432.103760
5398.024414	2300.243164
5397.118164	2461.384521
5396.212891	2359.675781
5395.306641	2378.428955
5394.400391	2424.540283
5393.493164	2421.387207
5392.586914	2467.475342
5391.680664	2406.878906
5390.773438	2480.299561
5389.866211	2386.911865
5388.958984	2408.370605
5388.051758	2465.353760
5387.144531	2393.878418
5386.236328	2415.324707
5385.329102	2384.859375
5384.420898	2564.716553
5383.512695	2419.539795
5382.604492	2451.887939
5381.696289	2454.196045
5380.787109	2549.304199
5379.878906	2406.958740
5378.969727	2455.657471
5378.060547	2414.314209
5377.151367	2501.180908
5376.242188	2473.479492
5375.332031	2530.312744
5374.422852	2538.055664
5373.512695	2417.688232
5372.602539	2518.105225
5371.692383	2514.947021
5370.782227	2555.378174
5369.872070	2535.871582
5368.960938	2540.881592
5368.050781	2518.660889
5367.139648	2515.504639
5366.228516	2531.403076
5365.317383	2462.930420
5364.405273	2525.089355
5363.494141	2492.007813
5362.582031	2570.460449
5361.669922	2545.541260
5360.757813	2526.068848
5359.845703	2495.728516
5358.933594	2574.125977
5358.021484	2562.811768
5357.108398	2635.735840
5356.195313	2610.830811
5355.282227	2585.934082
5354.369141	2647.952881
5353.456055	2633.919678
5352.542969	2541.158691
5351.628906	2660.156250
5350.714844	2624.416260
5349.801758	2599.542236
5348.887695	2561.111572
5347.972656	2631.197021
5347.058594	2568.364990
5346.143555	2483.861328
5345.229492	2651.525879
5344.314453	2450.476563
5343.399414	2520.520264
5342.484375	2623.056885
5341.568359	2606.348877
5340.653320	2603.190430
5339.737305	2743.576660
5338.821289	2645.619141
5337.905273	2526.035889
5336.989258	2647.413574
5336.073242	2633.424561
5335.157227	2673.560791
5334.240234	2605.460449
5333.323242	2623.946777
5332.406250	2688.405273
5331.489258	2663.604004
5330.572266	2733.440674
5329.654297	2635.652588
5328.737305	2681.145020
5327.819336	2648.254639
5326.901367	2780.187500
5325.983398	2644.639404
5325.065430	2673.893066
5324.146484	2587.017578
5323.228516	2683.770020
5322.309570	2707.602295
5321.390625	2685.542725
5320.471680	2590.629150
5319.552734	2668.427002
5318.632813	2802.848389
5317.713867	2786.181641
5316.793945	2672.438721
5315.874023	2728.598389
5314.954102	2768.563965
5314.034180	2700.703125
5313.114258	2746.049316
5312.193359	2705.159424
5311.272461	2869.020996
5310.352539	2709.612061
5309.431641	2822.249512
5308.509766	2797.529297
5307.588867	2772.817627
5306.667969	2691.591064
5305.746094	2785.315430
5304.824219	2731.021240
5303.902344	2789.733643
5302.980469	2724.698242
5302.058594	2775.323486
5301.135742	2785.599121
5300.213867	2860.391357
5299.291016	2744.318604
5298.368164	2665.909424
5297.445313	2778.300537
5296.521484	2850.355469
5295.598633	2844.490723
5294.674805	2868.169189
5293.750977	2787.120850
5292.827148	2754.423584
5291.903320	2837.156250
5290.979492	2836.666016
5290.055664	2841.541992
5289.130859	2835.685303
5288.206055	2843.241943
5287.281250	2810.568359
5286.356445	2925.381592
5285.431641	2881.981201
5284.506836	2827.873779
5283.581055	2886.344482
5282.655273	2864.409180
5281.729492	2837.123291
5280.803711	2871.454346
5279.877930	2844.176270
5278.952148	2913.303711
5278.025391	2918.154297
5277.098633	2853.407715
5276.171875	2925.173584
5275.245117	2951.425781
5274.318359	2950.915283
5273.391602	2912.956299
5272.463867	2858.963623
5271.536133	2879.860596
5270.609375	2839.259766
5269.680664	2908.267578
5268.752930	2934.489990
5267.825195	2901.916992
5266.896484	2989.579102
5265.968750	2908.926025
5265.040039	2983.202881
5264.111328	2990.697510
5263.182617	2944.793213
5262.252930	3005.678223
5261.324219	2831.680664
5260.394531	2940.595703
5259.464844	2956.094238
5258.535156	2918.237549
5257.605469	3003.077393
5256.675781	2879.895020
5255.745117	2991.373047
5254.814453	2918.882568
5253.883789	2979.676270
5252.953125	2987.154297
5252.022461	3119.850098
5251.091797	2986.119873
5250.160156	2993.592529
5249.229492	3195.452637
5248.297852	3131.001221
5247.366211	2957.431641
5246.434570	3018.133789
5245.501953	3036.238037
5244.570313	3043.693848
5243.637695	3128.290039
5242.705078	3082.533936
5241.772461	3055.407959
5240.839844	3086.783203
5239.907227	3041.057617
5238.973633	3056.477539
5238.041016	3069.234375
5237.107422	3156.379639
5236.173828	2948.631592
5235.240234	3062.326904
5234.305664	3032.585449
5233.372070	3098.435791
5232.437500	3031.534180
5231.502930	3118.594727
5230.568359	3168.473633
5229.633789	3141.392090
5228.699219	3071.876221
5227.764648	3042.168457
5226.829102	3078.766357
5225.893555	3035.810791
5224.958008	3090.953125
5224.022461	3159.328613
5223.086914	3148.180664
5222.150391	3094.644287
5221.213867	3149.737793
5220.278320	3082.976318
5219.341797	3357.848633
5218.405273	3145.451172
5217.467773	3221.675049
5216.531250	3178.767822
5215.593750	3180.862793
5214.656250	3267.623779
5213.718750	3177.113525
5212.781250	3208.301514
5211.843750	3176.010986
5210.905273	3119.935547
5209.967773	3116.750488
5209.029297	3235.148926
5208.090820	3192.305176
5207.152344	3157.402832
5206.212891	3209.688965
5205.274414	3203.849365
5204.334961	3290.439697
5203.396484	3123.526855
5202.457031	3223.300049
5201.516602	3259.692383
5200.577148	3290.794189
5199.637695	3271.753174
5198.697266	3197.319580
5197.756836	3273.254395
5196.816406	3322.791504
5195.875977	3264.207520
5194.935547	3184.553955
5193.994141	3223.537354
5193.053711	3312.577881
5192.112305	3182.895020
5191.170898	3372.018066
5190.229492	3197.592773
5189.287109	3257.607178
5188.345703	3328.132568
5187.403320	3282.800781
5186.460938	3266.437744
5185.518555	3284.291748
5184.576172	3302.139404
5183.633789	3298.934814
5182.690430	3487.740967
5181.748047	3324.086426
5180.804688	3263.033447
5179.861328	3393.911377
5178.917969	3461.660889
5177.973633	3303.379883
5177.030273	3323.825928
5176.085938	3244.436035
5175.141602	3380.456055
5174.197266	3432.391357
5173.252930	3423.917480
5172.308594	3297.310303
5171.363281	3357.107178
5170.418945	3527.105225
5169.473633	3203.754883
5168.528320	3300.264160
5167.582031	3399.363037
5166.636719	3417.129150
5165.691406	3421.779053
5164.745117	3387.103027
5163.798828	3441.557861
5162.852539	3469.786621
5161.906250	3369.614258
5160.958984	3497.396973
5160.012695	3483.691895
5159.065430	3506.655518
5158.118164	3346.322510
5157.170898	3618.007080
5156.223633	3525.765137
5155.276367	3561.790283
5154.328125	3417.258301
5153.379883	3492.531250
5152.432617	3541.621094
5151.484375	3488.700439
5150.535156	3584.839355
5149.586914	3469.185791
5148.637695	3523.472656
5147.689453	3486.271729
5146.740234	3459.535400
5145.791016	3600.007324
5144.840820	3487.063232
5143.891602	3598.753906
5142.941406	3483.237793
5141.992188	3553.119141
5141.041992	3536.839111
5140.091797	3554.491455
5139.140625	3650.416748
5138.190430	3641.954346
5137.239258	3630.886475
5136.289063	3692.844482
5135.337891	3520.107178
5134.386719	3694.165039
5133.434570	3696.128174
5132.483398	3588.633057
5131.531250	3598.430420
5130.579102	3553.514893
5129.627930	3659.690918
5128.674805	3609.571289
5127.722656	3645.396240
5126.770508	3720.259521
5125.817383	3735.228760
5124.864258	3669.515625
5123.911133	3684.488281
5122.958008	3603.196777
5122.004883	3576.557373
5121.050781	3672.158936
5120.097656	3520.705811
5119.143555	3621.483154
5118.189453	3717.026611
5117.235352	3552.649902
5116.280273	3783.289063
5115.326172	3715.082520
5114.371094	3753.397217
5113.416016	3916.357178
5112.460938	3785.843994
5111.505859	3818.933838
5110.550781	3755.970947
5109.594727	3739.744385
5108.639648	3775.419189
5107.683594	3738.439697
5106.727539	3748.163086
5105.770508	3986.104980
5104.814453	3713.146729
5103.857422	3777.312012
5102.901367	3724.811523
5101.944336	3884.842285
5100.987305	3770.152832
5100.030273	3862.760742
5099.072266	3818.052002
5098.115234	3685.305176
5097.157227	3850.381348
5096.199219	3743.563965
5095.241211	3846.448730
5094.282227	3770.725098
5093.324219	3832.168213
5092.365234	3916.873535
5091.407227	3841.177002
5090.448242	3848.264893
5089.489258	3782.949219
5088.529297	3862.433105
5087.570313	3954.812988
5086.610352	4013.563477
5085.650391	3868.161865
5084.690430	3833.900879
5083.730469	3864.227783
5082.770508	3902.291748
5081.809570	3893.863525
5080.849609	3867.366699
5079.888672	3993.171631
5078.927734	3780.849609
5077.966797	4025.320801
5077.004883	3908.522949
5076.043945	3840.774658
5075.082031	3992.263672
5074.120117	4120.492676
5073.158203	4011.493164
5072.196289	3889.643555
5071.234375	3953.393311
5070.271484	3988.776611
5069.308594	3988.079346
5068.345703	4041.474854
5067.382813	4069.097656
5066.419922	3903.590820
5065.457031	4196.398926
5064.493164	4000.039307
5063.529297	4001.913574
5062.565430	3967.763184
5061.601563	4224.337402
5060.637695	4074.409424
5059.673828	3983.684570
5058.708984	4044.699951
5057.744141	4133.973633
5056.779297	4143.532227
5055.814453	4135.097656
5054.849609	4070.135986
5053.883789	4200.447266
5052.918945	4225.398926
5051.953125	4209.250488
5050.987305	4123.778809
5050.020508	4076.846436
5049.054688	4119.769531
5048.088867	4075.420166
5047.122070	4223.531250
5046.155273	4068.863037
5045.188477	4168.187500
5044.221680	4311.075195
5043.253906	4194.934570
5042.287109	4240.346680
5041.319336	4160.144043
5040.351563	4208.108887
5039.383789	4166.375000
5038.416016	4157.959961
5037.447266	4185.407715
5036.479492	4184.675293
5035.510742	4352.938965
5034.541992	4249.772461
5033.573242	4213.193359
5032.604492	4366.008301
5031.634766	4145.190430
5030.665039	4251.913574
5029.696289	4266.516113
5028.726563	4265.769043
5027.755859	4316.161133
5026.786133	4374.205078
5025.815430	4434.784668
5024.845703	4342.005371
5023.875000	4308.027344
5022.904297	4366.031250
5021.933594	4301.409668
5020.961914	4400.255371
5019.991211	4361.183594
5019.019531	4388.501953
5018.047852	4262.660645
5017.076172	4384.412109
5016.104492	4335.163086
5015.131836	4293.584961
5014.160156	4333.644043
5013.187500	4498.650879
5012.214844	4482.563477
5011.242188	4458.833496
5010.268555	4437.660645
5009.295898	4327.298340
5008.322266	4387.692383
5007.348633	4313.043457
5006.375000	4493.133301
5005.401367	4426.131836
5004.427734	4458.456543
5003.453125	4478.041504
5002.479492	4413.622559
5001.504883	4509.554199
5000.530273	4574.919434
4999.554688	4472.356934
4998.580078	4537.704590
4997.604492	4547.081055
4996.629883	4436.949219
4995.654297	4499.726074
4994.678711	4577.731445
4993.702148	4698.912109
4992.726563	4497.358398
4991.750000	4646.454590
4990.773438	4617.699707
4989.796875	4619.428711
4988.820313	4456.115723
4987.843750	4465.488281
4986.866211	4530.698242
4985.889648	4547.667480
4984.912109	4551.943848
4983.934570	4647.545898
4982.957031	4621.365723
4981.978516	4648.450195
4981.000977	4647.634277
4980.022461	4684.844727
4979.043945	4722.041504
4978.065430	4627.447266
4977.086914	4603.831055
4976.107422	4686.621582
4975.127930	4695.930176
4974.149414	4707.767578
4973.169922	4742.388184
4972.189453	4761.807617
4971.209961	4672.383301
4970.230469	4600.704590
4969.250000	4653.030762
4968.269531	4680.040527
4967.289063	4777.861328
4966.308594	4900.936035
4965.327148	4715.500488
4964.346680	4777.871582
4963.365234	4670.875488
4962.383789	4809.044434
4961.402344	4757.666504
4960.420898	4729.042480
4959.438477	4937.848633
4958.457031	4838.493652
4957.474609	4845.217773
4956.492188	4874.659180
4955.509766	4777.891113
4954.527344	4842.663086
4953.543945	4839.289063
4952.560547	4808.166504
4951.577148	4940.997559
4950.593750	4912.389648
4949.610352	4861.099609
4948.626953	4908.141113
4947.642578	4980.370605
4946.658203	4775.375977
4945.674805	4850.122559
4944.689453	5050.797363
4943.705078	5019.685059
4942.720703	4892.891602
4941.735352	4985.188477
4940.750000	4921.377930
4939.764648	4945.681152
4938.779297	4922.163086
4937.793945	5042.064941
4936.807617	4995.897949
4935.821289	5148.440918
4934.835938	5016.771973
4933.849609	5106.401367
4932.862305	5120.585449
4931.875977	5177.491211
4930.888672	4900.160645
4929.902344	5240.992676
4928.915039	5034.084961
4927.926758	4977.943848
4926.939453	5110.157715
4925.952148	5033.937500
4924.963867	5098.317871
4923.975586	5210.361328
4922.987305	5131.653809
4921.999023	5185.946289
4921.010742	5097.236328
4920.021484	5194.152344
4919.032227	5173.176758
4918.042969	5315.173828
4917.053711	5146.287598
4916.064453	5265.682129
4915.075195	5342.435547
4914.084961	5206.203125
4913.094727	5323.019043
4912.104492	5189.342285
4911.114258	5130.834473
4910.124023	5192.520996
4909.132813	5261.695313
4908.142578	5350.866699
4907.151367	5237.320313
4906.160156	5414.029785
4905.167969	5222.967285
4904.176758	5392.113770
4903.184570	5351.154785
4902.193359	5367.711914
4901.201172	5406.760742
4900.208984	5530.768066
4899.215820	5252.429199
4898.223633	5418.891602
4897.230469	5430.425781
4896.237305	5454.442871
4895.244141	5426.014160
4894.250977	5382.615234
4893.257813	5528.937988
4892.263672	5510.493164
4891.269531	5621.808105
4890.275391	5453.664063
4889.281250	5614.836426
4888.287109	5426.800781
4887.292969	5587.920898
4886.297852	5571.976563
4885.302734	5630.816406
4884.307617	5647.268066
4883.312500	5653.747070
4882.317383	5650.258301
4881.321289	5604.425781
4880.325195	5566.080566
4879.329102	5477.949219
4878.333008	5603.949219
4877.336914	5777.196777
4876.340820	5661.699219
4875.343750	5740.322754
4874.346680	5502.970215
4873.349609	5832.815430
4872.352539	5727.335938
4871.355469	5828.269531
4870.357422	5663.163086
4869.360352	5662.163574
4868.362305	5787.906250
4867.364258	5916.088867
4866.365234	5743.629883
4865.367188	5787.324219
4864.368164	5739.117676
4863.370117	5914.394043
4862.371094	5819.013672
4861.371094	5919.750977
4860.372070	5831.848145
4859.373047	5872.998535
4858.373047	5839.710938
4857.373047	5910.608887
4856.373047	6048.437988
4855.373047	5876.287598
4854.372070	5947.140625
4853.372070	5980.789551
4852.371094	5994.601563
4851.370117	5934.077637
4850.369141	5831.461426
4849.368164	5996.377441
4848.366211	5747.679688
4847.364258	6090.819824
4846.363281	5958.541504
4845.361328	6088.666504
4844.358398	5958.909668
4843.356445	6017.236816
4842.353516	6001.330566
4841.351563	6081.888672
4840.348633	6063.503418
4839.344727	6072.320801
4838.341797	6197.319336
4837.338867	6211.052734
4836.334961	6143.233887
4835.331055	6196.502441
4834.327148	6081.774902
4833.323242	6204.189941
4832.318359	6101.847656
4831.314453	6248.905273
4830.309570	6203.366699
4829.304688	6024.567871
4828.299805	6139.480957
4827.294922	6118.656738
4826.289063	6322.315918
4825.284180	6072.098145
4824.278320	6120.341309
4823.272461	6363.337891
4822.265625	6194.590820
4821.259766	6341.369141
4820.252930	6293.428223
4819.247070	6238.112305
4818.240234	6310.906250
4817.233398	6336.880371
4816.225586	6335.758301
4815.218750	6189.380859
4814.210938	6207.977051
4813.203125	6435.759766
4812.195313	6277.138184
4811.187500	6391.656738
4810.179688	6351.168457
4809.170898	6473.011230
4808.162109	6427.604492
4807.153320	6441.216797
4806.144531	6442.533691
4805.135742	6434.020020
4804.125977	6440.251465
4803.117188	6444.024414
4802.107422	6592.717285
4801.097656	6606.284180
4800.086914	6600.202637
4799.077148	6500.833496
4798.066406	6619.955078
4797.055664	6527.979004
4796.045898	6453.211426
4795.034180	6442.254883
4794.023438	6617.716309
4793.011719	6513.542969
4792.000977	6654.601563
4790.989258	6606.843262
4789.977539	6689.008789
4788.965820	6729.484375
4787.953125	6542.074707
4786.940430	6945.128418
4785.928711	6725.905273
4784.916016	6531.248535
4783.902344	6676.999023
4782.889648	6714.983887
4781.876953	6681.974121
4780.863281	6864.327148
4779.849609	6904.704102
4778.835938	6756.701172
4777.821289	6777.515137
4776.807617	6949.939453
4775.792969	6743.325684
4774.779297	6830.134277
4773.763672	6926.687988
4772.749023	6879.028320
4771.734375	6885.137695
4770.718750	6996.286621
4769.704102	6904.675781
4768.688477	6903.450684
4767.671875	6694.694824
4766.656250	6888.794922
4765.640625	6926.623047
4764.624023	6993.719727
4763.607422	7004.677246
4762.590820	7040.024414
4761.574219	7029.019043
4760.556641	6886.337891
4759.540039	6914.372070
4758.522461	7093.529297
4757.504883	7077.646484
4756.487305	7025.217773
4755.468750	7053.206055
4754.451172	7207.851563
4753.432617	7228.490723
4752.414063	7229.642090
4751.395508	7106.627441
4750.376953	7197.863770
4749.357422	7118.705078
4748.338867	7095.540527
4747.319336	7077.250000
4746.299805	7294.912598
4745.280273	7050.415039
4744.259766	7277.730957
4743.240234	7278.869141
4742.219727	7221.668945
4741.199219	7268.991211
4740.178711	7403.771484
4739.158203	7285.843262
4738.136719	7299.122070
4737.115234	7164.253906
4736.094727	7264.961426
4735.073242	7207.833008
4734.050781	7415.296387
4733.029297	7413.978027
4732.006836	7439.350098
4730.984375	7389.507813
4729.961914	7443.981445
4728.939453	7479.034180
4727.916992	7470.430176
4726.893555	7568.495605
4725.871094	7540.487793
4724.847656	7459.174805
4723.824219	7627.454590
4722.799805	7483.168945
4721.776367	7612.630859
4720.751953	7703.299316
4719.727539	7537.285156
4718.703125	7560.152344
4717.678711	7619.316406
4716.654297	7632.479980
4715.628906	7575.473145
4714.603516	7728.945801
4713.578125	7659.848145
4712.552734	7559.338379
4711.527344	7574.916992
4710.500977	7663.010742
4709.474609	7830.831543
4708.449219	7778.690918
4707.421875	7844.956055
4706.395508	7655.140137
4705.369141	7888.051758
4704.341797	7744.175781
4703.314453	7836.956055
4702.287109	7883.838867
4701.259766	7783.481934
4700.231445	7919.639648
4699.204102	7980.957520
4698.175781	7827.567871
4697.147461	7852.703125
4696.119141	7952.580078
4695.090820	7929.465332
4694.061523	8010.008789
4693.032227	7933.870605
4692.002930	7987.877930
4690.973633	7950.316895
4689.944336	8163.279785
4688.915039	8106.433594
4687.884766	8184.449707
4686.854492	8269.660156
4685.824219	8188.753906
4684.793945	8136.755371
4683.762695	8144.929688
4682.732422	8242.114258
4681.701172	8262.291992
4680.669922	8299.297852
4679.638672	8290.604492
4678.607422	8296.338867
4677.575195	8261.208984
4676.542969	8269.348633
4675.510742	8236.638672
4674.478516	8155.892578
4673.446289	8272.130859
4672.413086	8469.977539
4671.380859	8408.441406
4670.347656	8435.749023
4669.314453	8115.019531
4668.281250	8401.541992
4667.247070	8560.798828
4666.213867	8458.517578
4665.179688	8684.863281
4664.145508	8373.965820
4663.111328	8468.375977
4662.076172	8476.454102
4661.041992	8494.115234
4660.006836	8583.660156
4658.971680	8560.565430
4657.936523	8515.918945
4656.900391	8734.743164
4655.865234	8630.214844
4654.829102	8674.164063
4653.792969	8665.434570
4652.756836	8601.660156
4651.720703	8588.160156
4650.684570	8708.643555
4649.647461	8797.986328
4648.610352	8765.324219
4647.573242	8782.888672
4646.536133	8776.539063
4645.498047	8829.949219
4644.460938	8763.844727
4643.422852	9118.313477
4642.384766	8954.228516
4641.346680	9029.065430
4640.308594	9115.816406
4639.269531	8968.533203
4638.230469	8966.930664
4637.191406	8915.202148
4636.152344	9059.186523
4635.113281	8954.965820
4634.073242	9206.245117
4633.034180	9004.241211
4631.994141	9117.102539
4630.954102	9187.003906
4629.914063	9078.083984
4628.873047	9183.719727
4627.832031	9172.545898
4626.791992	8987.440430
4625.750977	9205.000000
4624.708984	9158.099609
4623.667969	9242.192383
4622.625977	9231.016602
4621.584961	9155.569336
4620.542969	9353.861328
4619.500000	9487.831055
4618.458008	9336.240234
4617.416016	9394.041992
4616.373047	9499.389648
4615.330078	9502.447266
4614.287109	9291.521484
4613.244141	9449.126953
4612.200195	9499.724609
4611.156250	9500.401367
4610.112305	9638.876953
4609.068359	9501.752930
4608.024414	9471.552734
4606.980469	9583.837891
4605.935547	9686.585938
4604.890625	9597.023438
4603.845703	9524.106445
4602.800781	9626.808594
4601.754883	9622.712891
4600.709961	9749.081055
4599.664063	9721.248047
4598.618164	9631.773438
4597.572266	9796.001953
4596.526367	9692.324219
4595.479492	9830.413086
4594.432617	9812.066406
4593.385742	9798.463867
4592.338867	9600.112305
4591.291992	9825.741211
4590.244141	9734.005859
4589.197266	9850.630859
4588.149414	9702.115234
4587.101563	9707.476563
4586.052734	9923.418945
4585.004883	9682.708008
4583.956055	10059.413086
4582.907227	9721.805664
4581.858398	9944.681641
4580.809570	10001.999023
4579.759766	10236.562500
4578.710938	9946.425781
4577.661133	10223.442383
4576.611328	9916.875000
4575.561523	10016.658203
4574.510742	10017.223633
4573.460938	10185.420898
4572.410156	10294.542969
4571.359375	10226.612305
4570.308594	10087.914063
4569.256836	10163.962891
4568.206055	10192.805664
4567.154297	10167.393555
4566.102539	10299.979492
4565.050781	10213.256836
4563.999023	10416.502930
4562.946289	10365.141602
4561.893555	10250.176758
4560.840820	10224.779297
4559.788086	10456.140625
4558.735352	10317.669922
4557.681641	10461.808594
4556.628906	10321.030273
4555.575195	10662.836914
4554.521484	10507.953125
4553.467773	10581.362305
4552.413086	10433.604492
4551.358398	10467.014648
4550.304688	10540.390625
4549.249023	10627.847656
4548.194336	10470.783203
4547.139648	10588.776367
4546.083984	10478.774414
4545.028320	10704.804688
4543.972656	10778.056641
4542.916992	10776.121094
4541.861328	10551.093750
4540.804688	10725.292969
4539.748047	10749.189453
4538.691406	10808.283203
4537.634766	11076.207031
4536.578125	10722.283203
4535.520508	10865.797852
4534.462891	10901.372070
4533.405273	10829.064453
4532.347656	10871.666016
4531.290039	10764.226563
4530.231445	10891.196289
4529.173828	10828.314453
4528.115234	11048.940430
4527.055664	11098.489258
4525.997070	11082.442383
4524.938477	11232.654297
4523.878906	11041.000000
4522.819336	11106.897461
4521.759766	11313.191406
4520.700195	11379.015625
4519.639648	11143.020508
4518.579102	11218.206055
4517.519531	11248.930664
4516.458008	11338.099609
4515.397461	11656.341797
4514.336914	11343.372070
4513.275391	11315.625977
4512.213867	11262.186523
4511.152344	11323.236328
4510.090820	11456.670898
4509.028320	11487.304688
4507.966797	11452.550781
4506.904297	11653.587891
4505.841797	11618.814453
4504.779297	11516.378906
4503.715820	11439.644531
4502.653320	11575.220703
4501.589844	11353.896484
4500.526367	11662.000000
4499.461914	11662.233398
4498.398438	11825.642578
4497.333984	11779.231445
4496.270508	11784.101563
4495.206055	12024.284180
4494.140625	11810.142578
4493.076172	11789.384766
4492.010742	11740.690430
4490.946289	12027.268555
4489.880859	11950.615234
4488.815430	11992.682617
4487.749023	11930.023438
4486.683594	11827.836914
4485.617188	12072.269531
4484.550781	11893.346680
4483.484375	12002.815430
4482.416992	11991.354492
4481.350586	12038.006836
4480.283203	12249.643555
4479.215820	12114.994141
4478.148438	12254.522461
4477.081055	12375.418945
4476.012695	12117.736328
4474.944336	12252.543945
4473.875977	12189.977539
4472.807617	12285.264648
4471.739258	12415.326172
4470.669922	12457.172852
4469.601563	12345.897461
4468.532227	12383.101563
4467.462891	12566.385742
4466.392578	12473.697266
4465.323242	12578.082031
4464.252930	12260.607422
4463.182617	12687.093750
4462.112305	12552.745117
4461.041992	12622.291016
4459.970703	12622.331055
4458.900391	12874.771484
4457.829102	12617.779297
4456.757813	12585.411133
4455.685547	12728.946289
4454.614258	12837.718750
4453.541992	12745.175781
4452.469727	12944.116211
4451.397461	12902.465820
4450.325195	12916.324219
4449.251953	13071.199219
4448.179688	12918.597656
4447.106445	12851.557617
4446.033203	13269.767578
4444.959961	13036.355469
4443.885742	12973.948242
4442.811523	13107.858398
4441.738281	13246.336914
4440.663086	13105.435547
4439.588867	13179.236328
4438.514648	13292.241211
4437.439453	13160.634766
4436.364258	13174.407227
4435.289063	13370.380859
4434.213867	13222.688477
4433.137695	13123.465820
4432.062500	13436.905273
4430.986328	13542.802734
4429.910156	13353.704102
4428.833984	13489.528320
4427.756836	13454.842773
4426.680664	13696.541016
4425.603516	13378.598633
4424.526367	13555.758789
4423.448242	13580.932617
4422.371094	13587.684570
4421.292969	13472.478516
4420.214844	13713.909180
4419.136719	13870.143555
4418.058594	13589.364258
4416.980469	13920.315430
4415.901367	13761.471680
4414.822266	13648.654297
4413.743164	13735.813477
4412.664063	13793.071289
4411.583984	13921.522461
4410.504883	13682.428711
4409.424805	13944.046875
4408.344727	13861.164063
4407.264648	13984.916992
4406.183594	14062.719727
4405.103516	14112.957031
4404.022461	13995.686523
4402.941406	14018.388672
4401.859375	13926.404297
4400.778320	13926.178711
4399.696289	14207.956055
4398.614258	14216.847656
4397.532227	14289.908203
4396.450195	14406.478516
4395.368164	14419.910156
4394.285156	14513.507813
4393.202148	14336.824219
4392.119141	14604.427734
4391.036133	14482.735352
4389.952148	14413.734375
4388.869141	14635.405273
4387.785156	14676.231445
4386.701172	14602.654297
4385.617188	14478.783203
4384.532227	14526.473633
4383.448242	14651.887695
4382.363281	14514.355469
4381.278320	14719.723633
4380.192383	14728.485352
4379.107422	14547.599609
4378.021484	14656.902344
4376.935547	14617.704102
4375.849609	14720.101563
4374.763672	14701.453125
4373.677734	14981.854492
4372.590820	14899.257813
4371.503906	15145.291016
4370.416992	14994.248047
4369.330078	14932.221680
4368.242188	15255.657227
4367.154297	15075.030273
4366.067383	14983.382813
4364.979492	15197.217773
4363.890625	15424.648438
4362.802734	15193.988281
4361.713867	15245.912109
4360.625000	15245.425781
4359.536133	15224.443359
4358.447266	15201.190430
4357.357422	15309.987305
4356.268555	15500.685547
4355.178711	15124.651367
4354.088867	15294.834961
4352.998047	15567.327148
4351.908203	15539.485352
4350.817383	15429.784180
4349.726563	15492.922852
4348.635742	15478.746094
4347.544922	15453.209961
4346.453125	15468.586914
4345.361328	15767.961914
4344.269531	15901.399414
4343.177734	15757.698242
4342.085938	15718.506836
4340.993164	15924.530273
4339.901367	16037.410156
4338.808594	15896.056641
4337.715820	15770.636719
4336.622070	15754.162109
4335.529297	15966.794922
4334.435547	16025.130859
4333.341797	15904.311523
4332.248047	16100.928711
4331.154297	15930.270508
4330.059570	15913.781250
4328.964844	16030.982422
4327.870117	15948.781250
4326.775391	16287.906250
4325.680664	16289.477539
4324.584961	16186.893555
4323.489258	16088.874023
4322.393555	16409.617188
4321.297852	16359.114258
4320.202148	16227.175781
4319.105469	16482.115234
4318.008789	16546.972656
4316.912109	16458.037109
4315.815430	16606.529297
4314.718750	16513.089844
4313.621094	16498.789063
4312.523438	16556.802734
4311.425781	16608.017578
4310.328125	16693.095703
4309.229492	16513.900391
4308.131836	16614.769531
4307.033203	16796.876953
4305.934570	16737.392578
4304.835938	16587.656250
4303.736328	16875.716797
4302.636719	16832.041016
4301.538086	16783.869141
4300.437500	17035.652344
4299.337891	16872.466797
4298.238281	17076.798828
4297.137695	16924.933594
4296.037109	17230.589844
4294.936523	17144.089844
4293.835938	16935.974609
4292.734375	17527.503906
4291.632813	17105.460938
4290.532227	17120.361328
4289.429688	17391.878906
4288.328125	17276.181641
4287.225586	17243.783203
4286.124023	17485.880859
4285.021484	17230.759766
4283.918945	17297.345703
4282.815430	17390.886719
4281.712891	17428.189453
4280.609375	17593.603516
4279.505859	17493.763672
4278.402344	17425.416016
4277.297852	17393.037109
4276.194336	17796.427734
4275.089844	17449.585938
4273.985352	17632.773438
4272.880859	17845.078125
4271.775391	17850.806641
4270.670898	17919.367188
4269.565430	17586.277344
4268.459961	17993.599609
4267.354492	17900.605469
4266.248047	17639.458984
4265.141602	17943.410156
4264.036133	17870.650391
4262.929688	17804.638672
4261.822266	18256.289063
4260.715820	17993.070313
4259.608398	18428.839844
4258.500977	18165.683594
4257.393555	17998.910156
4256.286133	18210.556641
4255.177734	18301.250000
4254.069336	18311.343750
4252.961914	18511.626953
4251.852539	18617.873047
4250.744141	18267.779297
4249.635742	18376.267578
4248.526367	18202.982422
4247.416992	18470.166016
4246.307617	18688.078125
4245.197266	18753.947266
4244.087891	18627.638672
4242.977539	18351.703125
4241.867188	18460.031250
4240.756836	18724.636719
4239.645508	18580.562500
4238.535156	18666.464844
4237.423828	18609.494141
4236.312500	18655.191406
4235.200195	18881.587891
4234.088867	18728.687500
4232.976563	18765.416016
4231.864258	18761.990234
4230.751953	19092.984375
4229.639648	19062.750000
4228.527344	18818.578125
4227.414063	18988.945313
4226.300781	19092.414063
4225.187500	19215.892578
4224.074219	19014.179688
4222.959961	19302.394531
4221.845703	19256.572266
4220.731445	19152.894531
4219.617188	19389.738281
4218.502930	19223.775391
4217.387695	19522.804688
4216.272461	19174.494141
4215.157227	19371.130859
4214.041992	19360.921875
4212.926758	19579.679688
4211.810547	19533.875000
4210.694336	19512.529297
4209.578125	19640.046875
4208.461914	19289.931641
4207.345703	19610.660156
4206.228516	19478.289063
4205.111328	19754.460938
4203.994141	19577.714844
4202.876953	19449.857422
4201.758789	19586.091797
4200.640625	19697.873047
4199.523438	19827.355469
4198.404297	19703.976563
4197.286133	20048.486328
4196.167969	19860.820313
4195.048828	19764.099609
4193.929688	19676.275391
4192.810547	19940.769531
4191.690430	19704.523438
4190.571289	19973.343750
4189.451172	20053.839844
4188.331055	19952.753906
4187.210938	20121.767578
4186.089844	20014.064453
4184.968750	20017.042969
4183.848633	20026.654297
4182.727539	19919.027344
4181.605469	20094.521484
4180.484375	20137.279297
4179.362305	20018.634766
4178.240234	20271.375000
4177.118164	20309.654297
4175.996094	20495.958984
4174.873047	20041.539063
4173.750000	20223.406250
4172.626953	19985.619141
4171.503906	20282.242188
4170.380859	20293.980469
4169.256836	20453.593750
4168.133789	20198.281250
4167.009766	20426.248047
4165.884766	20574.716797
4164.760742	20493.755859
4163.635742	20368.720703
4162.510742	20267.982422
4161.385742	20389.916016
4160.260742	20529.435547
4159.135742	20618.222656
4158.009766	20568.179688
4156.883789	20553.398438
4155.757813	20573.857422
4154.630859	20554.673828
4153.504883	20740.236328
4152.377930	20749.642578
4151.250977	20726.033203
4150.124023	21052.277344
4148.997070	20681.039063
4147.869141	20855.406250
4146.741211	20921.953125
4145.613281	20852.158203
4144.485352	20624.113281
4143.356445	20831.326172
4142.228516	21042.857422
4141.099609	21039.000000
4139.970703	20947.275391
4138.841797	20765.537109
4137.711914	20926.417969
4136.582031	20953.316406
4135.452148	20949.472656
4134.322266	21009.275391
4133.192383	20884.738281
4132.061523	21071.771484
4130.931641	21116.160156
4129.800781	21035.531250
4128.668945	21334.253906
4127.538086	20999.312500
4126.406250	21159.847656
4125.274414	21254.578125
4124.142578	21198.091797
4123.010742	21259.919922
4121.878906	21155.269531
4120.746094	21405.404297
4119.613281	21357.685547
4118.480469	20859.050781
4117.347656	21446.144531
4116.213867	21433.453125
4115.080078	21556.410156
4113.946289	21519.642578
4112.812500	21552.869141
4111.678711	21142.205078
4110.543945	21621.470703
4109.409180	21619.685547
4108.274414	21552.337891
4107.139648	21410.724609
4106.003906	21474.513672
4104.869141	21584.146484
4103.733398	21564.894531
4102.597656	21510.714844
4101.460938	21572.251953
4100.325195	21522.455078
4099.188477	21446.486328
4098.051758	21337.820313
4096.915039	21962.136719
4095.778320	21508.818359
4094.640625	21672.769531
4093.502930	21592.480469
4092.365234	21693.138672
4091.227539	21730.560547
4090.088867	21942.283203
4088.951172	22310.785156
4087.812500	21733.822266
4086.673828	21762.494141
4085.534180	21812.925781
4084.395508	22004.841797
4083.255859	22285.925781
4082.116211	22188.251953
4080.976563	22060.150391
4079.836914	21899.466797
4078.696289	22123.810547
4077.555664	21978.392578
4076.415039	22080.882813
4075.274414	21944.220703
4074.132813	21870.634766
4072.992188	22003.507813
4071.850586	22221.060547
4070.708984	22369.023438
4069.566406	21828.478516
4068.424805	22241.365234
4067.282227	22245.955078
4066.139648	22148.525391
4064.997070	22339.763672
4063.853516	22413.761719
4062.710938	21990.947266
4061.567383	22459.734375
4060.423828	22362.349609
4059.280273	22282.345703
4058.135742	22518.865234
4056.991211	22245.962891
4055.847656	22549.578125
4054.702148	22551.923828
4053.557617	22179.519531
4052.413086	22418.000000
4051.267578	22379.224609
4050.122070	22472.525391
4048.976563	22375.308594
4047.830078	22442.603516
4046.683594	22663.501953
4045.538086	22391.066406
4044.390625	22585.933594
4043.244141	22698.550781
4042.097656	22547.337891
4040.950195	22575.609375
4039.802734	22523.898438
4038.655273	22604.023438
4037.506836	22431.330078
4036.359375	22461.757813
4035.210938	22649.839844
4034.062500	22833.531250
4032.914063	22585.351563
4031.764648	22727.972656
4030.616211	22747.521484
4029.466797	22404.548828
4028.317383	22447.880859
4027.166992	22836.316406
4026.017578	22648.791016
4024.867188	22998.232422
4023.716797	22787.031250
4022.566406	22903.531250
4021.415039	22545.880859
4020.264648	22802.429688
4019.113281	22740.058594
4017.961914	22834.937500
4016.810547	22787.654297
4015.658203	22606.900391
4014.505859	22882.570313
4013.353516	22490.943359
4012.201172	22854.755859
4011.048828	22820.417969
4009.895508	22598.947266
4008.742188	22786.183594
4007.588867	22971.199219
4006.435547	23050.800781
4005.282227	23347.468750
4004.127930	22823.083984
4002.973633	22782.341797
4001.819336	22840.433594
4000.665039	22696.601563
3999.509766	22703.146484
3998.354492	22825.630859
3997.199219	22898.695313
3996.043945	23025.386719
3994.888672	22606.976563
3993.732422	22952.513672
3992.576172	22613.636719
3991.419922	22742.429688
3990.263672	22956.945313
3989.106445	22856.226563
3987.949219	22680.521484
3986.792969	23025.656250
3985.634766	23047.113281
3984.477539	23342.777344
3983.319336	22680.890625
3982.161133	22725.951172
3981.002930	23030.074219
3979.844727	22809.599609
3978.686523	22807.521484
3977.527344	22792.603516
3976.368164	22741.318359
3975.208984	22888.992188
3974.048828	22775.681641
3972.889648	22839.896484
3971.729492	23087.951172
3970.569336	22827.171875
3969.409180	22765.244141
3968.248047	22701.201172
3967.087891	22673.501953
3965.926758	22829.503906
3964.764648	22748.398438
3963.603516	22477.287109
3962.442383	22857.392578
3961.280273	22831.818359
3960.118164	22673.943359
3958.955078	22765.757813
3957.792969	22910.869141
3956.629883	22712.539063
3955.466797	22542.003906
3954.303711	22810.732422
3953.140625	23049.515625
3951.976563	22397.345703
3950.813477	22861.988281
3949.649414	22642.576172
3948.484375	22932.332031
3947.320313	22849.285156
3946.155273	22642.771484
3944.990234	22898.300781
3943.825195	22802.533203
3942.660156	22442.916016
3941.494141	22683.443359
3940.329102	22636.695313
3939.163086	22266.669922
3937.996094	22536.865234
3936.830078	22562.453125
3935.663086	22339.322266
3934.496094	22719.867188
3933.329102	22660.406250
3932.162109	22760.308594
3930.995117	22649.882813
3929.827148	22320.746094
3928.659180	22494.970703
3927.491211	22728.574219
3926.322266	22601.248047
3925.153320	22603.423828
3923.985352	22688.347656
3922.816406	22749.902344
3921.646484	22732.957031
3920.477539	22773.273438
3919.307617	22544.304688
3918.137695	22315.421875
3916.967773	22383.341797
3915.796875	22586.855469
3914.626953	22425.882813
3913.456055	22584.828125
3912.285156	22390.029297
3911.113281	22536.214844
3909.942383	22595.542969
3908.770508	22455.882813
3907.598633	22434.783203
3906.426758	22350.214844
3905.253906	22301.640625
3904.082031	22483.628906
3902.909180	22344.113281
3901.736328	22587.339844
3900.562500	22416.146484
3899.389648	22441.572266
3898.215820	22481.781250
3897.041992	22481.830078
3895.868164	22295.992188
3894.693359	22465.033203
3893.519531	22589.666016
3892.344727	22313.126953
3891.169922	22178.111328
3889.994141	22330.160156
3888.819336	22380.871094
3887.643555	22435.783203
3886.467773	22258.656250
3885.291992	22206.017578
3884.115234	22406.408203
3882.939453	22204.087891
3881.762695	22328.527344
3880.585938	22128.402344
3879.408203	22280.197266
3878.231445	21818.947266
3877.053711	22141.335938
3875.875977	21977.185547
3874.698242	22078.365234
3873.519531	22095.308594
3872.341797	22265.875000
3871.163086	22185.984375
3869.984375	22061.945313
3868.804688	22141.976563
3867.625977	21967.517578
3866.446289	22058.046875
3865.266602	22278.876953
3864.085938	22003.601563
3862.906250	21967.986328
3861.725586	21890.363281
3860.544922	21982.917969
3859.364258	21869.615234
3858.183594	21892.843750
3857.001953	21878.271484
3855.820313	22023.232422
3854.638672	21956.173828
3853.457031	22082.177734
3852.274414	21931.216797
3851.092773	21581.046875
3849.910156	21881.109375
3848.726563	21868.648438
3847.543945	21923.271484
3846.360352	21770.378906
3845.177734	21720.222656
3843.993164	21653.324219
3842.809570	21852.482422
3841.625977	21716.466797
3840.441406	21559.560547
3839.256836	21633.007813
3838.072266	21823.644531
3836.886719	21587.277344
3835.701172	21650.210938
3834.516602	21593.876953
3833.330078	21619.136719
3832.144531	21307.693359
3830.958008	21665.441406
3829.772461	21519.251953
3828.585938	21797.400391
3827.398438	21333.605469
3826.211914	21544.826172
3825.024414	21413.386719
3823.836914	21438.634766
3822.649414	21420.019531
3821.461914	21347.130859
3820.273438	21113.541016
3819.084961	21195.169922
3817.896484	21220.427734
3816.708008	21245.677734
3815.518555	21250.056641
3814.329102	21350.363281
3813.139648	21041.968750
3811.950195	21161.035156
3810.760742	21227.951172
3809.570313	21340.687500
3808.379883	21061.687500
3807.189453	20920.275391
3805.999023	21049.662109
3804.807617	20858.328125
3803.616211	20908.564453
3802.424805	20829.726563
3801.233398	21040.195313
3800.041992	20984.250000
3798.849609	21352.714844
3797.657227	21018.013672
3796.464844	20916.349609
3795.271484	20920.761719
3794.079102	20640.375000
3792.885742	20831.890625
3791.692383	20873.716797
3790.498047	20873.972656
3789.304688	20747.517578
3788.110352	20841.253906
3786.916016	20640.095703
3785.721680	20569.804688
3784.526367	20665.595703
3783.332031	20742.671875
3782.136719	20651.648438
3780.941406	20390.548828
3779.745117	20370.144531
3778.549805	20513.574219
3777.353516	20505.593750
3776.157227	20126.552734
3774.960938	20456.476563
3773.763672	20533.468750
3772.566406	20357.669922
3771.369141	20374.578125
3770.171875	20339.703125
3768.974609	20420.796875
3767.776367	20375.572266
3766.578125	20119.236328
3765.379883	20185.837891
3764.181641	20322.761719
3762.982422	20143.119141
3761.783203	19915.970703
3760.583984	19916.380859
3759.384766	19951.939453
3758.184570	20028.826172
3756.985352	20014.746094
3755.785156	20052.328125
3754.584961	19986.595703
3753.383789	19922.953125
3752.183594	19797.375000
3750.982422	19785.410156
3749.781250	19930.347656
3748.579102	19489.033203
3747.377930	19788.748047
3746.175781	19628.232422
3744.973633	19797.841797
3743.771484	19571.382813
3742.568359	19674.949219
3741.365234	19580.546875
3740.162109	19558.328125
3738.958984	19274.371094
3737.755859	19493.306641
3736.551758	19452.572266
3735.347656	19450.988281
3734.143555	19319.658203
3732.939453	19445.759766
3731.734375	19228.013672
3730.529297	19362.318359
3729.324219	19212.578125
3728.119141	19126.677734
3726.914063	19258.863281
3725.708008	19234.687500
3724.501953	19138.546875
3723.295898	19030.103516
3722.088867	19156.039063
3720.882813	19261.375000
3719.675781	18889.951172
3718.468750	19003.511719
3717.260742	18891.083984
3716.053711	18889.595703
3714.845703	19021.570313
3713.637695	18898.935547
3712.429688	19022.646484
3711.220703	18590.185547
3710.011719	18779.562500
3708.802734	18710.396484
3707.593750	18713.039063
3706.384766	18629.556641
3705.174805	18447.693359
3703.964844	18682.011719
3702.754883	18612.923828
3701.544922	18750.814453
3700.333984	18425.656250
3699.123047	18483.646484
3697.912109	18660.392578
3696.701172	18310.861328
3695.489258	18454.816406
3694.278320	18539.363281
3693.066406	18400.822266
3691.853516	18237.783203
3690.641602	18238.449219
3689.428711	18543.851563
3688.215820	18309.304688
3687.002930	18238.400391
3685.790039	18437.335938
3684.576172	18444.089844
3683.362305	18179.085938
3682.148438	17997.939453
3680.934570	17820.945313
3679.719727	17942.166016
3678.504883	18183.806641
3677.290039	18108.941406
3676.075195	18046.349609
3674.860352	17871.548828
3673.644531	17664.169922
3672.428711	17966.824219
3671.212891	17837.001953
3669.996094	17760.242188
3668.780273	17679.435547
3667.563477	17802.486328
3666.346680	17428.238281
3665.128906	17757.080078
3663.912109	17641.697266
3662.694336	17536.542969
3661.476563	17233.896484
3660.257813	17360.958984
3659.040039	17632.501953
3657.821289	17486.720703
3656.602539	17546.511719
3655.383789	17272.626953
3654.164063	17706.705078
3652.945313	17502.039063
3651.725586	17582.111328
3650.504883	17452.761719
3649.285156	17384.435547
3648.064453	17257.201172
3646.844727	17351.480469
3645.623047	17039.441406
3644.402344	17206.839844
3643.180664	17258.427734
3641.959961	17273.453125
3640.738281	16866.253906
3639.515625	16911.787109
3638.293945	17168.330078
3637.071289	16929.765625
3635.848633	17109.128906
3634.625977	16744.927734
3633.402344	16893.843750
3632.178711	17135.953125
3630.955078	16711.146484
3629.731445	16853.904297
3628.507813	16755.503906
3627.283203	16657.140625
3626.058594	16890.962891
3624.833984	16889.804688
3623.609375	16605.212891
3622.383789	16650.664063
3621.158203	16639.429688
3619.932617	16664.623047
3618.707031	16511.779297
3617.480469	16427.761719
3616.254883	16469.154297
3615.028320	16451.896484
3613.800781	16400.279297
3612.574219	16372.935547
3611.346680	16329.433594
3610.119141	16578.896484
3608.891602	16226.318359
3607.663086	16065.731445
3606.435547	16054.625000
3605.207031	16330.193359
3603.978516	15998.108398
3602.749023	16120.209961
3601.520508	16308.848633
3600.291016	16128.250000
3599.061523	16040.497070
3597.831055	15898.330078
3596.601563	15883.233398
3595.371094	15882.251953
3594.140625	15913.516602
3592.909180	16019.323242
3591.678711	15901.466797
3590.447266	15646.683594
3589.215820	15788.728516
3587.984375	15666.953125
3586.751953	15996.158203
3585.520508	15880.424805
3584.288086	15772.785156
3583.054688	15733.590820
3581.822266	15819.129883
3580.588867	15403.844727
3579.355469	15606.040039
3578.122070	15406.068359
3576.888672	15620.246094
3575.654297	15418.336914
3574.419922	15441.544922
3573.185547	15478.806641
3571.951172	15421.651367
3570.715820	15310.295898
3569.480469	15221.068359
3568.245117	15422.947266
3567.009766	15054.752930
3565.773438	15374.979492
3564.538086	15219.596680
3563.301758	15014.124023
3562.064453	15257.964844
3560.828125	15108.705078
3559.590820	15141.934570
3558.353516	15199.203125
3557.116211	15242.420898
3555.877930	15131.343750
3554.640625	14976.235352
3553.402344	14983.417969
3552.164063	14966.566406
3550.924805	15065.842773
3549.686523	14844.805664
3548.447266	14817.980469
3547.207031	14851.195313
3545.967773	14722.348633
3544.727539	14871.579102
3543.488281	14694.779297
3542.248047	14386.082031
3541.006836	14747.191406
3539.766602	14382.636719
3538.525391	14519.796875
3537.284180	14455.112305
3536.041992	14480.341797
3534.800781	14435.660156
3533.558594	14299.140625
3532.316406	14366.308594
3531.074219	14273.766602
3529.831055	14410.760742
3528.587891	14390.074219
3527.344727	14255.684570
3526.101563	14119.350586
3524.858398	14130.635742
3523.614258	14117.990234
3522.370117	14356.517578
3521.125977	14146.523438
3519.880859	14247.460938
3518.636719	14043.541992
3517.391602	14184.297852
3516.146484	14235.380859
3514.900391	14123.170898
3513.655273	13857.712891
3512.409180	13878.971680
3511.163086	13762.910156
3509.916016	13804.073242
3508.669922	13821.349609
3507.422852	13920.162109
3506.175781	13925.476563
3504.927734	13896.991211
3503.680664	13816.833984
3502.432617	13885.758789
3501.184570	13863.255859
3499.935547	13580.513672
3498.687500	13613.690430
3497.438477	13617.066406
3496.189453	13489.397461
3494.940430	13550.362305
3493.690430	13468.402344
3492.441406	13547.205078
3491.190430	13348.220703
3489.940430	13309.983398
3488.690430	13628.740234
3487.439453	13439.765625
3486.188477	13300.424805
3484.937500	13182.938477
3483.685547	13293.394531
3482.434570	13322.572266
3481.182617	13427.015625
3479.929688	13281.864258
3478.677734	13190.232422
3477.424805	13057.058594
3476.171875	13117.921875
3474.918945	13170.845703
3473.666016	13107.003906
3472.412109	13011.532227
3471.158203	12997.193359
3469.904297	13073.828125
3468.650391	12843.964844
3467.395508	13110.375000
3466.140625	12898.379883
3464.885742	12953.235352
3463.630859	12915.210938
3462.375000	12798.187500
3461.119141	12726.631836
3459.863281	12890.078125
3458.607422	12696.129883
3457.350586	12452.909180
3456.093750	12872.862305
3454.836914	12779.653320
3453.580078	12694.370117
3452.322266	12640.675781
3451.064453	12644.188477
3449.806641	12462.370117
3448.548828	12613.753906
3447.291016	12646.830078
3446.032227	12500.582031
3444.773438	12549.426758
3443.513672	12574.615234
3442.254883	12369.381836
3440.995117	12428.066406
3439.735352	12618.623047
3438.475586	12366.259766
3437.214844	12245.836914
3435.955078	12141.198242
3434.694336	12223.472656
3433.432617	12325.381836
3432.171875	12106.739258
3430.910156	12281.371094
3429.648438	12282.964844
3428.386719	12141.096680
3427.124023	12205.589844
3425.862305	12185.585938
3424.599609	11996.676758
3423.335938	12098.469727
3422.073242	12109.909180
3420.809570	11981.972656
3419.545898	11989.503906
3418.282227	11789.035156
3417.018555	11988.860352
3415.753906	11845.350586
3414.489258	11917.615234
3413.224609	11705.546875
3411.958984	11899.352539
3410.694336	11830.445313
3409.428711	11547.967773
3408.163086	11722.097656
3406.896484	11647.385742
3405.629883	11668.667969
3404.364258	11676.234375
3403.096680	11777.769531
3401.830078	11699.186523
3400.562500	11511.041992
3399.294922	11506.890625
3398.027344	11532.083984
3396.759766	11555.311523
3395.491211	11529.641602
3394.222656	11449.238281
3392.954102	11581.932617
3391.685547	11470.278320
3390.416016	11307.861328
3389.146484	11399.478516
3387.876953	11485.201172
3386.607422	11369.742188
3385.336914	11394.908203
3384.066406	11330.264648
3382.795898	11413.981445
3381.525391	11085.918945
3380.253906	11294.514648
3378.982422	11270.901367
3377.710938	11122.478516
3376.439453	11114.505859
3375.166992	11108.485352
3373.894531	10942.633789
3372.622070	11133.475586
3371.349609	11028.083008
3370.076172	11160.393555
3368.802734	11066.720703
3367.529297	11097.711914
3366.255859	11070.282227
3364.981445	11044.808594
3363.707031	10881.165039
3362.432617	10937.460938
3361.158203	10890.625977
3359.882813	10806.852539
3358.607422	10802.842773
3357.332031	10822.166016
3356.056641	10794.827148
3354.780273	10862.733398
3353.503906	10769.326172
3352.227539	10800.295898
3350.951172	10609.811523
3349.673828	10592.246094
3348.396484	10582.454102
3347.119141	10673.617188
3345.841797	10824.914063
3344.563477	10558.919922
3343.285156	10667.495117
3342.006836	10568.461914
3340.728516	10576.137695
3339.449219	10261.914063
3338.169922	10480.970703
3336.890625	10506.103516
3335.611328	10473.084961
3334.331055	10494.333008
3333.050781	10250.165039
3331.770508	10501.939453
3330.490234	10391.483398
3329.208984	10534.708008
3327.927734	10265.551758
3326.646484	10410.679688
3325.365234	10509.309570
3324.083008	10373.804688
3322.800781	10354.410156
3321.518555	10116.486328
3320.236328	10278.903320
3318.953125	10213.139648
3317.669922	10240.176758
3316.386719	10160.916992
3315.103516	10097.144531
3313.819336	10236.226563
3312.535156	10118.384766
3311.250977	10139.618164
3309.966797	10012.185547
3308.681641	10147.315430
3307.396484	10099.054688
3306.111328	10018.009766
3304.826172	10072.035156
3303.540039	9987.167969
3302.253906	10153.025391
3300.967773	9994.908203
3299.681641	10012.269531
3298.394531	10091.296875
3297.107422	9977.600586
3295.820313	10081.648438
3294.532227	10018.078125
3293.245117	10010.379883
3291.957031	9875.605469
3290.668945	9910.288086
3289.379883	9850.646484
3288.091797	9712.128906
3286.802734	9827.628906
3285.512695	9693.015625
3284.223633	9739.237305
3282.933594	9720.062500
3281.643555	9820.089844
3280.353516	9758.620117
3279.063477	9585.711914
3277.772461	9691.470703
3276.481445	9597.401367
3275.190430	9641.655273
3273.898438	9493.864258
3272.607422	9657.154297
3271.315430	9522.851563
3270.022461	9636.174805
3268.730469	9632.406250
3267.437500	9634.393555
3266.144531	9575.001953
3264.851563	9623.023438
3263.557617	9421.772461
3262.264648	9561.819336
3260.970703	9527.400391
3259.675781	9389.518555
3258.381836	9487.339844
3257.086914	9414.644531
3255.791992	9361.126953
3254.497070	9378.476563
3253.201172	9458.993164
3251.905273	9363.388672
3250.609375	9223.806641
3249.313477	9426.755859
3248.016602	9323.559570
3246.720703	9235.703125
3245.423828	9230.103516
3244.125977	9394.657227
3242.829102	9262.872070
3241.531250	9259.180664
3240.233398	9226.829102
3238.934570	9169.655273
3237.636719	9229.010742
3236.337891	9246.333008
3235.039063	9214.006836
3233.739258	9166.421875
3232.440430	9109.311523
3231.140625	9147.630859
3229.840820	9075.283203
3228.540039	9056.371094
3227.240234	9058.442383
3225.939453	9016.659180
3224.638672	8923.421875
3223.336914	9083.709961
3222.035156	9013.360352
3220.734375	8897.313477
3219.431641	9067.037109
3218.129883	8878.653320
3216.827148	8836.958008
3215.524414	9052.283203
3214.221680	8835.458984
3212.918945	8818.534180
3211.615234	9060.374023
3210.311523	8830.356445
3209.007813	8937.064453
3207.703125	8783.220703
3206.398438	8792.935547
3205.093750	8833.059570
3203.789063	8875.068359
3202.483398	8865.758789
3201.178711	8736.769531
3199.873047	8725.589844
3198.566406	8720.110352
3197.260742	8809.563477
3195.954102	8621.837891
3194.647461	8599.299805
3193.340820	8658.363281
3192.033203	8556.145508
3190.725586	8499.489258
3189.417969	8556.639648
3188.110352	8627.040039
3186.801758	8426.330078
3185.493164	8511.889648
3184.184570	8445.820313
3182.875000	8561.656250
3181.566406	8611.148438
3180.256836	8461.766602
3178.947266	8528.300781
3177.636719	8329.770508
3176.327148	8470.121094
3175.016602	8460.916992
3173.705078	8572.806641
3172.394531	8487.918945
3171.083008	8319.846680
3169.771484	8284.204102
3168.459961	8403.602539
3167.147461	8396.309570
3165.835938	8455.164063
3164.523438	8315.600586
3163.209961	8349.888672
3161.897461	8076.296387
3160.583984	8314.561523
3159.270508	8139.258789
3157.957031	8166.001953
3156.642578	8160.650391
3155.328125	8138.318359
3154.013672	8323.516602
3152.699219	8489.780273
3151.383789	8261.840820
3150.068359	8279.099609
3148.752930	8243.568359
3147.437500	8076.118164
3146.121094	8255.458008
3144.804688	7969.376465
3143.488281	7947.116699
3142.170898	8054.811523
3140.854492	8156.815430
3139.537109	8102.527344
3138.218750	7989.911621
3136.901367	7997.776367
3135.583008	7949.193359
3134.264648	7985.278809
3132.946289	8203.781250
3131.626953	7852.445313
3130.308594	8046.448242
3128.988281	7939.631836
3127.668945	7752.047363
3126.349609	7876.435547
3125.029297	7801.648438
3123.708984	7807.651855
3122.387695	7783.607422
3121.067383	7943.563965
3119.746094	7893.222168
3118.424805	7878.557617
3117.102539	7860.145996
3115.780273	7894.269043
3114.458984	7703.300293
3113.135742	7780.571777
3111.813477	7769.690918
3110.490234	7683.832031
3109.166992	7776.054199
3107.843750	7705.216797
3106.519531	7752.435547
3105.196289	7621.689453
3103.872070	7698.869141
3102.546875	7856.531250
3101.222656	7894.322266
3099.897461	7718.728516
3098.572266	7732.204102
3097.246094	7672.707031
3095.920898	7695.538574
3094.594727	7729.581543
3093.268555	7756.131836
3091.941406	7612.547852
3090.615234	7674.623047
3089.288086	7678.742188
3087.960938	7748.252930
3086.632813	7651.481445
3085.304688	7638.792480
3083.976563	7603.700195
3082.648438	7738.513672
3081.320313	7602.618652
3079.991211	7610.476074
3078.662109	7644.451660
3077.333008	7592.600586
3076.002930	7428.860840
3074.672852	7580.332520
3073.342773	7487.505371
3072.012695	7763.797852
3070.681641	7732.472656
3069.350586	7596.812500
3068.019531	7496.601074
3066.688477	7578.964355
3065.356445	7469.483398
3064.024414	7477.343262
3062.692383	7490.784668
3061.359375	7381.383301
3060.027344	7465.547363
3058.694336	7505.028320
3057.360352	7605.875977
3056.027344	7632.295410
3054.693359	7446.736816
3053.359375	7478.752930
3052.025391	7464.290527
3050.690430	7565.046387
3049.355469	7329.479980
3048.020508	7495.236328
3046.685547	7519.781250
3045.349609	7431.049805
3044.013672	7357.203613
3042.677734	7294.522949
3041.340820	7361.768555
3040.004883	7382.603027
3038.667969	7462.790039
3037.330078	7429.810059
3035.993164	7398.697266
3034.655273	7343.495117
3033.317383	7449.576172
3031.979492	7307.282715
3030.640625	7357.742676
3029.301758	7319.262207
3027.962891	7256.718262
3026.624023	7214.567871
3025.284180	7426.079590
3023.944336	7282.103027
3022.604492	7236.270020
3021.263672	7223.760742
3019.923828	7342.604980
3018.583008	7261.642578
3017.241211	7182.561035
3015.900391	7114.603027
3014.558594	7211.191895
3013.216797	7368.733398
3011.875000	7326.647461
3010.532227	7304.899414
3009.189453	7179.721191
3007.846680	7239.267090
3006.503906	7036.601074
3005.160156	7171.837891
3003.816406	7150.139648
3002.472656	7174.582031
3001.128906	7180.564941
2999.784180	7138.585938
2998.439453	7175.924805
2997.094727	7113.679688
2995.749023	6935.316406
2994.403320	7120.125000
2993.057617	6916.030273
2991.711914	7071.290527
2990.365234	7128.859863
2989.018555	7007.758789
2987.671875	7092.937988
2986.325195	7054.735840
2984.977539	7057.042480
2983.629883	6987.576660
2982.282227	7006.454102
2980.933594	7036.361328
2979.585938	6930.154785
2978.237305	6978.453125
2976.887695	7124.172363
2975.539063	6995.952148
2974.189453	7018.479492
2972.839844	6938.102051
2971.489258	6866.940918
2970.139648	6928.049805
2968.789063	6979.952637
2967.438477	6974.919434
2966.086914	7019.449707
2964.735352	6786.836426
2963.383789	6842.394531
2962.032227	6947.463867
2960.680664	7046.989746
2959.328125	6851.227539
2957.975586	6892.060547
2956.622070	6927.378418
2955.269531	6871.043457
2953.916016	6959.490723
2952.562500	6813.399902
2951.208008	7004.397949
2949.854492	6871.174316
2948.500000	6860.678223
2947.144531	6842.863281
2945.790039	6867.150879
2944.434570	6858.490234
2943.079102	6866.298828
2941.723633	6835.690918
2940.367188	6763.031250
2939.010742	6794.623047
2937.654297	6848.139160
2936.297852	6722.513672
2934.940430	6885.666992
2933.583008	6767.390625
2932.225586	6716.747559
2930.867188	6792.141113
2929.508789	6690.384766
2928.150391	6846.081055
2926.791992	6680.469238
2925.432617	6832.455566
2924.074219	6849.365723
2922.713867	6806.070313
2921.354492	6850.335449
2919.994141	6752.351563
2918.633789	6827.602539
2917.273438	6704.142090
2915.913086	6877.782715
2914.551758	6801.733398
2913.190430	6634.628418
2911.829102	6748.075195
2910.466797	6723.082520
2909.104492	6794.592285
2907.742188	6658.562988
2906.379883	6695.478516
2905.016602	6477.640625
2903.653320	6727.423340
2902.290039	6580.599121
2900.925781	6592.040527
2899.562500	6745.291992
2898.197266	6663.989258
2896.833008	6773.547852
2895.468750	6657.746582
2894.103516	6832.664063
2892.738281	6744.141113
2891.372070	6671.996582
2890.005859	6681.583984
2888.640625	6765.594238
2887.273438	6662.632813
2885.907227	6664.957031
2884.540039	6689.050781
2883.172852	6600.674316
2881.805664	6688.243652
2880.437500	6652.483398
2879.069336	6527.909180
2877.701172	6816.622070
2876.333008	6764.547363
2874.963867	6696.187500
2873.594727	6553.587402
2872.225586	6805.846680
2870.855469	6554.639648
2869.485352	6665.594727
2868.115234	6642.568359
2866.745117	6614.122070
2865.374023	6699.669434
2864.002930	6660.368652
2862.631836	6631.934570
2861.260742	6594.469727
2859.888672	6784.807129
2858.516602	6599.113281
2857.144531	6599.625977
2855.771484	6549.548340
2854.398438	6586.198242
2853.025391	6543.366699
2851.652344	6545.694336
2850.278320	6768.273926
2848.904297	6600.885742
2847.530273	6482.288086
2846.156250	6603.707520
2844.781250	6530.253906
2843.406250	6712.937500
2842.030273	6558.345215
2840.655273	6596.721191
2839.279297	6386.333496
2837.903320	6549.076660
2836.526367	6508.150879
2835.150391	6409.593750
2833.773438	6548.821289
2832.395508	6468.301758
2831.018555	6510.240723
2829.640625	6427.959961
2828.262695	6421.298340
2826.884766	6560.384766
2825.505859	6566.291992
2824.126953	6478.667480
2822.748047	6463.008301
2821.368164	6425.779297
2819.989258	6393.958008
2818.609375	6349.567871
2817.228516	6301.601563
2815.848633	6506.961426
2814.467773	6387.135742
2813.086914	6409.225586
2811.705078	6427.715332
2810.324219	6460.558105
2808.942383	6272.634277
2807.559570	6397.007813
2806.177734	6368.839355
2804.794922	6360.411621
2803.412109	6452.414063
2802.029297	6393.769531
2800.645508	6487.520508
2799.261719	6355.408203
2797.877930	6398.955566
2796.493164	6320.659180
2795.109375	6401.811035
2793.724609	6357.570801
2792.338867	6397.500977
2790.954102	6394.451660
2789.568359	6266.116699
2788.182617	6304.250977
2786.795898	6372.784668
2785.409180	6389.417480
2784.022461	6323.777344
2782.635742	6292.135254
2781.249023	6362.403809
2779.861328	6094.836914
2778.473633	6429.590332
2777.084961	6422.963867
2775.697266	6278.795898
2774.308594	6329.351074
2772.918945	6306.676758
2771.530273	6260.803711
2770.140625	6391.650879
2768.750977	6336.855469
2767.361328	6182.167480
2765.970703	6252.302246
2764.580078	6358.078125
2763.189453	6353.258789
2761.797852	6430.447754
2760.407227	6293.716309
2759.015625	6119.615234
2757.623047	6157.606445
2756.231445	6231.209473
2754.838867	6213.951172
2753.446289	6118.350586
2752.052734	6352.145020
2750.659180	6325.972656
2749.265625	6166.339844
2747.872070	6305.684570
2746.478516	6345.354980
2745.083984	6184.033203
2743.689453	6239.715820
2742.293945	6190.482422
2740.898438	6183.928223
2739.502930	6266.233887
2738.107422	6211.692871
2736.711914	6325.936035
2735.315430	6244.762695
2733.918945	6186.706055
2732.521484	6105.591797
2731.125000	6079.535156
2729.727539	6112.054199
2728.329102	6233.276855
2726.931641	6100.770508
2725.533203	6209.531250
2724.134766	6098.360352
2722.736328	6260.266602
2721.336914	6118.995117
2719.937500	6108.924805
2718.538086	6024.438965
2717.137695	6161.429199
2715.737305	6156.668945
2714.336914	6164.306641
2712.936523	6216.203125
2711.535156	6137.088379
2710.133789	6102.249023
2708.732422	6062.114746
2707.331055	6149.371094
2705.928711	6063.255859
2704.526367	6019.615234
2703.124023	6182.853516
2701.720703	6004.860840
2700.317383	6030.183594
2698.914063	6117.340820
2697.509766	6024.265137
2696.106445	6113.154785
2694.702148	6096.051758
2693.296875	6138.985840
2691.892578	6049.508789
2690.487305	6168.324707
2689.082031	6040.056641
2687.675781	5982.406738
2686.269531	6028.847168
2684.863281	6225.166016
2683.457031	6015.881836
2682.049805	6178.631836
2680.642578	6054.036621
2679.235352	5961.208496
2677.828125	6076.304199
2676.419922	6113.852051
2675.011719	6051.003906
2673.603516	6005.788086
2672.194336	6062.690430
2670.785156	6077.329590
2669.375977	6120.117676
2667.965820	6087.237305
2666.556641	6122.969727
2665.146484	6014.480957
2663.735352	5983.398438
2662.325195	5975.181152
2660.914063	5886.118164
2659.502930	6064.188965
2658.090820	5948.790039
2656.678711	5956.393555
2655.266602	5891.990234
2653.854492	6103.277832
2652.441406	6010.782715
2651.029297	5928.854492
2649.615234	5890.828125
2648.202148	6017.734375
2646.788086	5955.147461
2645.374023	5897.846680
2643.959961	6063.249512
2642.544922	6077.824219
2641.129883	5922.380859
2639.714844	6064.898926
2638.298828	5893.750977
2636.883789	5995.929688
2635.467773	5807.349121
2634.050781	5874.484375
2632.634766	5911.832031
2631.217773	5945.664063
2629.799805	5830.739258
2628.382813	5945.053711
2626.964844	5907.139648
2625.546875	5960.182129
2624.128906	5810.373535
2622.709961	5896.628906
2621.291016	5954.884277
2619.872070	5890.791992
2618.452148	5903.599121
2617.032227	5935.615723
2615.612305	5876.803711
2614.192383	5819.761230
2612.771484	5822.096680
2611.350586	5779.049805
2609.929688	5922.741699
2608.508789	5747.093262
2607.086914	5761.650391
2605.665039	5913.979492
2604.242188	5862.237305
2602.819336	5956.955078
2601.396484	5762.299805
2599.973633	5687.963867
2598.550781	5714.709473
2597.126953	5830.283203
2595.703125	5796.033691
2594.278320	5714.783691
2592.853516	5854.660156
2591.428711	5794.316895
2590.003906	5700.933105
2588.578125	5689.359863
2587.153320	5876.096191
2585.726563	5803.621094
2584.300781	5710.308594
2582.874023	5740.464844
2581.447266	5695.869141
2580.020508	5715.589355
2578.592773	5787.424316
2577.165039	5635.145020
2575.737305	5753.859375
2574.308594	5806.542480
2572.880859	5529.352539
2571.451172	5767.780762
2570.022461	5730.189453
2568.592773	5657.912598
2567.163086	5733.111328
2565.733398	5608.832031
2564.303711	5689.212402
2562.873047	5528.583984
2561.442383	5569.082031
2560.010742	5762.062988
2558.579102	5672.552246
2557.147461	5714.728516
2555.715820	5568.108887
2554.284180	5520.247070
2552.851563	5683.613281
2551.417969	5554.395020
2549.985352	5639.814941
2548.551758	5649.071777
2547.118164	5620.268066
2545.684570	5517.106934
2544.250000	5583.444336
2542.815430	5497.619141
2541.380859	5455.039551
2539.945313	5531.717285
2538.510742	5587.630859
2537.075195	5522.601563
2535.638672	5531.862305
2534.202148	5615.369141
2532.765625	5538.287598
2531.329102	5506.113281
2529.892578	5527.449219
2528.455078	5459.057129
2527.017578	5468.317871
2525.579102	5556.909668
2524.140625	5686.849609
2522.702148	5515.039551
2521.263672	5674.237793
2519.824219	5480.095215
2518.384766	5530.689941
2516.945313	5471.017090
2515.505859	5604.261230
2514.065430	5418.896484
2512.625000	5414.371094
2511.183594	5489.023926
2509.743164	5524.066406
2508.301758	5443.817871
2506.859375	5466.813477
2505.417969	5369.408691
2503.975586	5418.202148
2502.533203	5396.489258
2501.089844	5342.127441
2499.646484	5402.925293
2498.203125	5374.354980
2496.759766	5392.176758
2495.315430	5411.708496
2493.871094	5417.495117
2492.426758	5404.394531
2490.982422	5322.642090
2489.537109	5347.319336
2488.091797	5323.945313
2486.645508	5432.666016
2485.200195	5335.536621
2483.752930	5497.367188
2482.306641	5376.261719
2480.860352	5382.042480
2479.413086	5367.256348
2477.964844	5316.495605
2476.517578	5426.776855
2475.069336	5206.470703
2473.621094	5446.865234
2472.172852	5276.290039
2470.723633	5451.531738
2469.274414	5441.884277
2467.825195	5293.653809
2466.375000	5357.596680
2464.924805	5240.226563
2463.474609	5369.131348
2462.024414	5345.831543
2460.573242	5278.101074
2459.122070	5348.817383
2457.669922	5187.143066
2456.218750	5194.645020
2454.766602	5268.750488
2453.314453	5233.544434
2451.861328	5165.916504
2450.408203	5224.620605
2448.955078	5157.020508
2447.501953	5306.128418
2446.047852	5185.658203
2444.593750	5247.721680
2443.138672	5210.861816
2441.684570	5202.998535
2440.229492	5217.295410
2438.774414	5221.361816
2437.318359	5199.870117
2435.862305	5132.394043
2434.406250	5214.815430
2432.950195	5195.040039
2431.493164	5142.926270
2430.036133	5225.295410
2428.579102	5151.073730
2427.121094	5219.796387
2425.663086	5055.450684
2424.205078	5105.457031
2422.746094	5089.129883
2421.287109	5171.408691
2419.828125	5088.787109
2418.369141	5043.583496
2416.909180	5130.918457
2415.449219	5078.929199
2413.989258	5186.601074
2412.528320	5098.963867
2411.067383	5116.614258
2409.606445	4995.080078
2408.144531	5072.136230
2406.683594	4971.018555
2405.220703	4981.894531
2403.757813	4941.887695
2402.296875	4864.594727
2400.833984	4980.588379
2399.369141	4943.995117
2397.906250	4836.245117
2396.443359	4950.479980
2394.978516	4861.403809
2393.513672	4906.152344
2392.048828	5032.155762
2390.583984	4968.508789
2389.119141	4994.590332
2387.654297	4983.433594
2386.187500	5007.809082
2384.720703	5044.015137
2383.255859	4948.296875
2381.789063	4955.755859
2380.320313	4866.854980
2378.853516	4892.918457
2377.386719	4849.689941
2375.917969	4789.583984
2374.449219	4991.313477
2372.982422	4824.810059
2371.513672	4790.070801
2370.042969	4827.933105
2368.574219	4896.159668
2367.105469	4773.680664
2365.634766	4846.951172
2364.164063	4813.928223
2362.693359	4767.426758
2361.222656	4845.711426
2359.751953	4846.421875
2358.279297	4892.636719
2356.808594	4871.431152
2355.335938	4764.314453
2353.863281	4711.140625
2352.390625	4769.132324
2350.917969	4751.334961
2349.445313	4760.478027
2347.970703	4772.983398
2346.498047	4711.446289
2345.023438	4697.038574
2343.548828	4773.463379
2342.074219	4715.325684
2340.599609	4690.837402
2339.123047	4701.659180
2337.648438	4648.612305
2336.171875	4798.900879
2334.695313	4712.256348
2333.218750	4652.520508
2331.742188	4693.564453
2330.265625	4689.260254
2328.787109	4736.994141
2327.310547	4724.291016
2325.832031	4674.678711
2324.353516	4655.282715
2322.875000	4610.735840
2321.396484	4588.005859
2319.917969	4645.760254
2318.437500	4602.917480
2316.957031	4581.878418
2315.478516	4678.135742
2313.998047	4578.354492
2312.517578	4659.499512
2311.035156	4625.068359
2309.554688	4545.447754
2308.072266	4475.901855
2306.591797	4540.266113
2305.109375	4582.852051
2303.626953	4481.556152
2302.142578	4659.609863
2300.660156	4573.388184
2299.177734	4520.638184
2297.693359	4579.898926
2296.208984	4473.690918
2294.724609	4531.266113
2293.240234	4493.600586
2291.755859	4464.300293
2290.269531	4528.520996
2288.785156	4572.681641
2287.298828	4458.256836
2285.812500	4447.343262
2284.326172	4358.016113
2282.839844	4437.205078
2281.353516	4493.013184
2279.865234	4543.795898
2278.376953	4411.175781
2276.890625	4406.950195
2275.402344	4489.381348
2273.914063	4421.829590
2272.423828	4340.979004
2270.935547	4426.703125
2269.445313	4357.539063
2267.957031	4459.872559
2266.466797	4315.830566
2264.976563	4399.825684
2263.484375	4365.661133
2261.994141	4301.568359
2260.503906	4377.199219
2259.011719	4449.473633
2257.519531	4260.722656
2256.027344	4339.639160
2254.535156	4352.054688
2253.042969	4401.015625
2251.548828	4298.800293
2250.056641	4299.590820
2248.562500	4336.909180
2247.068359	4256.349121
2245.574219	4345.111328
2244.080078	4161.700684
2242.583984	4286.944824
2241.089844	4335.837402
2239.593750	4232.140625
2238.097656	4257.812012
2236.601563	4190.641602
2235.105469	4338.954590
2233.609375	4225.398438
2232.113281	4251.049316
2230.615234	4124.305176
2229.117188	4312.254883
2227.619141	4250.120605
2226.121094	4138.351563
2224.623047	4221.917969
2223.125000	4181.350098
2221.625000	4187.119629
2220.125000	4224.312988
2218.626953	4172.192871
2217.126953	4090.333496
2215.625000	4114.298828
2214.125000	4070.495361
2212.625000	4167.156738
2211.123047	4205.959473
2209.621094	4107.658691
2208.119141	4045.726563
2206.617188	4069.670410
2205.115234	4022.626709
2203.611328	4099.375000
2202.109375	4103.493164
2200.605469	4097.711426
2199.101563	3992.973389
2197.597656	3997.109619
2196.093750	4017.730469
2194.589844	4049.881104
2193.083984	4166.064453
2191.580078	4143.799316
2190.074219	3974.933350
2188.568359	4002.124512
2187.062500	4047.417480
2185.554688	4007.084229
2184.048828	4035.897705
2182.541016	4015.330322
2181.035156	3983.253906
2179.527344	3893.616943
2178.019531	4007.949463
2176.509766	4104.148438
2175.001953	3924.123047
2173.494141	3837.857178
2171.984375	4026.055176
2170.474609	3908.587158
2168.964844	3914.363037
2167.455078	3943.128418
2165.943359	3968.597900
2164.433594	3826.611816
2162.921875	3842.246582
2161.412109	3872.643311
2159.900391	3937.480469
2158.386719	3946.521240
2156.875000	3894.880127
2155.363281	3889.168945
2153.849609	3988.374023
2152.335938	3887.586670
2150.824219	3894.988770
2149.310547	3876.175049
2147.794922	3849.178955
2146.281250	3920.450684
2144.765625	3818.141357
2143.251953	3815.727295
2141.736328	3985.158447
2140.220703	3784.720703
2138.705078	3728.327881
2137.187500	3817.527588
2135.671875	3779.138672
2134.154297	3814.338135
2132.636719	3805.388184
2131.121094	3763.755859
2129.601563	3794.034424
2128.083984	3698.511719
2126.566406	3648.759521
2125.046875	3737.828613
2123.527344	3776.250000
2122.007813	3785.274170
2120.488281	3751.863770
2118.968750	3785.363037
2117.449219	3781.328857
2115.927734	3718.581787
2114.408203	3810.769287
2112.886719	3679.569092
2111.365234	3747.277344
2109.843750	3678.068848
2108.320313	3797.886719
2106.798828	3723.808838
2105.275391	3657.904053
2103.751953	3611.565674
2102.228516	3724.786621
2100.705078	3654.038574
2099.181641	3711.875977
2097.656250	3701.356934
2096.132813	3695.721680
2094.607422	3566.489258
2093.082031	3677.953857
2091.556641	3633.310791
2090.031250	3660.199463
2088.503906	3542.453857
2086.978516	3681.450439
2085.451172	3541.007568
2083.923828	3614.988037
2082.396484	3546.056396
2080.869141	3564.812256
2079.341797	3565.707275
2077.812500	3646.111816
2076.283203	3535.048828
2074.755859	3566.766846
2073.226563	3426.574951
2071.697266	3479.378906
2070.166016	3528.919189
2068.636719	3549.266846
2067.105469	3486.968506
2065.574219	3512.176025
2064.042969	3456.389404
2062.511719	3523.695313
2060.980469	3529.451172
2059.447266	3481.787842
2057.916016	3429.288574
2056.382813	3464.184082
2054.849609	3486.123291
2053.316406	3561.426270
2051.783203	3337.548096
2050.248047	3438.717529
2048.714844	3360.428467
2047.179688	3345.196777
2045.644531	3349.359375
2044.109375	3392.289307
2042.574219	3451.352051
2041.039063	3394.130859
2039.501953	3380.521240
2037.964844	3310.425049
2036.429688	3306.520020
2034.892578	3305.843262
2033.353516	3350.332275
2031.816406	3330.293701
2030.279297	3329.611816
2028.740234	3348.274902
2027.201172	3391.106445
2025.662109	3300.172852
2024.123047	3283.386230
2022.583984	3389.023438
2021.042969	3327.133057
2019.503906	3199.254150
2017.962891	3242.062500
2016.421875	3376.590576
2014.880859	3261.652344
2013.337891	3315.682373
2011.796875	3175.068359
2010.253906	3243.566406
2008.712891	3107.847900
2007.169922	3255.096680
2005.626953	3219.072510
2004.082031	3183.063232
2002.539063	3167.952393
2000.994141	3128.755615
1999.451172	3206.798584
1997.906250	3183.664307
1996.361328	3186.221680
1994.816406	3151.866943
1993.269531	3199.354980
1991.724609	3203.511230
1990.177734	3101.812500
1988.630859	3144.470703
1987.083984	3119.778076
1985.537109	3045.406982
1983.990234	3129.715332
1982.441406	3175.536377
1980.892578	3141.245605
1979.343750	3068.531982
1977.794922	3090.318848
1976.246094	3112.096680
1974.697266	3105.055420
1973.146484	3024.407227
1971.597656	3038.185059
1970.046875	3128.736084
1968.496094	3094.509521
1966.945313	3061.895996
1965.394531	3021.302734
1963.841797	3049.450439
1962.289063	3044.030273
1960.738281	3003.465088
1959.185547	2974.097168
1957.632813	2895.236328
1956.078125	3094.216797
1954.525391	2994.611816
1952.970703	3006.763916
1951.416016	2940.725342
1949.863281	3013.504395
1948.306641	2977.795654
1946.751953	2930.938965
1945.197266	2984.542725
1943.640625	2840.470703
1942.083984	3048.655029
1940.527344	2930.122070
1938.970703	2896.066406
1937.414063	2917.768066
1935.857422	3036.593262
1934.298828	2905.423340
1932.740234	2885.725342
1931.181641	2883.540283
1929.623047	2929.086670
1928.064453	2934.846680
1926.505859	2918.338867
1924.945313	2860.496582
1923.384766	2831.292725
1921.826172	2951.503662
1920.263672	2893.689697
1918.703125	2759.639648
1917.142578	2844.845703
1915.580078	2871.257324
1914.019531	2872.253662
1912.457031	2808.164795
1910.894531	2825.044678
1909.330078	2789.553467
1907.767578	2735.039551
1906.203125	2777.301270
1904.640625	2756.113770
1903.076172	2739.691162
1901.511719	2747.052246
1899.947266	2773.427979
1898.380859	2764.933838
1896.816406	2864.166016
1895.250000	2740.036377
1893.683594	2775.892334
1892.117188	2776.903076
1890.550781	2763.667725
1888.984375	2721.951904
1887.416016	2746.705811
1885.847656	2717.665527
1884.281250	2720.268066
1882.712891	2677.013916
1881.142578	2742.859375
1879.574219	2682.231689
1878.003906	2755.949951
1876.435547	2690.604492
1874.865234	2726.379883
1873.294922	2645.274658
1871.724609	2633.676025
1870.152344	2707.327393
1868.582031	2709.925049
1867.009766	2696.741943
1865.437500	2688.296875
1863.865234	2678.277832
1862.292969	2573.643799
1860.720703	2607.798828
1859.146484	2525.290771
1857.574219	2644.545898
1856.000000	2614.061523
1854.425781	2657.631592
1852.851563	2598.806396
1851.275391	2549.453369
1849.701172	2533.182861
1848.125000	2620.806641
1846.548828	2513.251221
1844.972656	2575.667969
1843.396484	2600.304932
1841.820313	2621.786133
1840.242188	2519.035889
1838.664063	2603.408936
1837.087891	2579.293945
1835.509766	2599.189453
1833.929688	2578.227295
1832.351563	2505.437012
1830.773438	2602.288574
1829.193359	2523.242676
1827.613281	2538.418945
1826.033203	2417.041748
1824.453125	2496.570068
1822.871094	2550.963379
1821.291016	2523.770508
1819.708984	2567.157959
1818.126953	2513.318604
1816.544922	2606.852051
1814.962891	2473.097412
1813.380859	2441.247314
1811.796875	2426.642578
1810.214844	2506.019531
1808.630859	2472.615967
1807.046875	2431.397949
1805.460938	2434.025146
1803.876953	2424.131104
1802.292969	2400.159424
1800.707031	2462.234863
1799.121094	2413.240967
1797.535156	2361.139893
1795.949219	2396.607666
1794.361328	2443.001709
1792.775391	2456.559814
1791.187500	2432.614990
1789.599609	2443.045166
1788.011719	2464.403076
1786.423828	2360.839600
1784.835938	2375.960938
1783.246094	2397.318848
1781.656250	2421.788818
1780.066406	2396.324707
1778.476563	2347.474609
1776.886719	2470.185059
1775.296875	2387.038574
1773.705078	2406.807861
1772.113281	2368.904785
1770.523438	2388.669678
1768.929688	2411.541504
1767.337891	2305.129883
1765.746094	2299.979980
1764.152344	2273.035645
1762.558594	2302.138428
1760.966797	2273.648438
1759.371094	2310.518311
1757.777344	2384.706543
1756.183594	2325.111572
1754.587891	2307.524658
1752.992188	2324.146240
1751.396484	2284.806152
1749.800781	2295.209473
1748.205078	2282.303711
1746.609375	2253.869873
1745.011719	2284.461670
1743.414063	2318.145752
1741.816406	2236.941895
1740.218750	2323.390869
1738.621094	2234.460693
1737.021484	2233.996338
1735.423828	2252.144775
1733.824219	2282.691406
1732.224609	2282.216797
1730.625000	2236.789551
1729.023438	2290.566650
1727.423828	2285.442139
1725.822266	2193.568359
1724.220703	2255.064453
1722.619141	2285.565186
1721.017578	2147.303223
1719.416016	2196.387451
1717.812500	2203.668213
1716.210938	2169.171387
1714.607422	2249.157715
1713.003906	2200.746582
1711.400391	2170.910156
1709.794922	2154.999268
1708.191406	2142.186035
1706.585938	2155.647705
1704.980469	2107.305664
1703.375000	2117.679199
1701.769531	2158.934570
1700.164063	2183.188721
1698.556641	2238.305908
1696.949219	2152.956299
1695.341797	2180.282227
1693.734375	2034.814697
1692.126953	2113.052002
1690.519531	2035.509155
1688.910156	2143.006348
1687.300781	2094.776123
1685.691406	2094.339600
1684.082031	2002.997925
1682.472656	2090.385986
1680.861328	2069.928711
1679.251953	2063.338135
1677.640625	2092.158203
1676.029297	2130.201172
1674.417969	2052.814941
1672.806641	2089.311523
1671.193359	1953.514160
1669.580078	2076.137207
1667.968750	2040.340332
1666.355469	2076.808594
1664.740234	2008.750977
1663.126953	2043.673706
1661.513672	2024.812012
1659.898438	1993.670410
1658.283203	2039.323486
1656.667969	2049.645264
1655.052734	2050.752441
1653.435547	1956.709351
1651.820313	2066.774414
1650.203125	2001.913696
1648.585938	1944.748291
1646.968750	2022.545410
1645.351563	1985.329346
1643.732422	1997.176880
1642.115234	1979.903076
1640.496094	1977.957520
1638.876953	2006.648438
1637.257813	1921.998291
1635.638672	1984.374023
1634.017578	1912.010376
1632.398438	1965.178833
1630.777344	1905.090698
1629.156250	2001.074707
1627.535156	1982.301880
1625.912109	1905.425903
1624.291016	1897.383057
1622.667969	1924.501221
1621.044922	2011.210571
1619.421875	1942.032104
1617.798828	1949.264282
1616.175781	1962.602539
1614.550781	1904.166260
1612.927734	1876.287842
1611.302734	1953.739746
1609.677734	1931.966553
1608.050781	1907.150879
1606.425781	1885.396240
1604.798828	1894.152344
1603.173828	1910.528442
1601.546875	1984.826416
1599.919922	1946.307861
1598.291016	1944.376709
1596.664063	1864.748413
1595.035156	1925.284912
1593.406250	1938.587524
1591.777344	1862.055176
1590.148438	1913.420532
1588.519531	1922.151245
1586.888672	1897.403442
1585.259766	1890.921143
1583.628906	1866.190063
1581.998047	1865.799194
1580.367188	1892.773804
1578.734375	1875.657471
1577.103516	1832.713989
1575.470703	1789.788330
1573.837891	1854.731445
1572.205078	1796.631836
1570.572266	1758.295532
1568.937500	1835.348633
1567.304688	1857.730225
1565.669922	1822.439819
1564.035156	1879.708252
1562.400391	1806.507813
1560.765625	1830.392700
1559.128906	1845.170532
1557.492188	1808.403198
1555.857422	1806.508423
1554.220703	1816.735962
1552.582031	1783.027222
1550.945313	1759.934570
1549.308594	1804.993042
1547.669922	1777.363525
1546.031250	1852.671509
1544.392578	1738.785034
1542.753906	1857.945923
1541.113281	1784.947998
1539.474609	1755.838623
1537.833984	1699.524780
1536.193359	1762.660034
1534.552734	1722.993652
1532.910156	1767.964233
1531.269531	1778.168335
1529.626953	1733.991943
1527.986328	1736.648071
1526.343750	1721.185181
1524.699219	1707.238159
1523.056641	1696.315308
1521.412109	1656.728516
1519.769531	1671.465820
1518.125000	1695.246216
1516.480469	1690.366333
1514.835938	1649.306030
1513.189453	1677.597656
1511.544922	1668.203247
1509.898438	1645.252930
1508.251953	1669.008179
1506.605469	1617.453003
1504.957031	1663.789429
1503.310547	1628.815918
1501.662109	1670.614990
1500.013672	1662.739868
1498.365234	1644.337036
1496.716797	1613.908936
1495.068359	1613.569458
1493.417969	1626.761230
1491.769531	1615.896851
1490.119141	1633.590942
1488.468750	1664.800293
1486.816406	1670.458740
1485.166016	1570.982056
1483.513672	1689.276123
1481.861328	1567.318237
1480.208984	1610.515625
1478.556641	1662.698608
1476.904297	1612.838135
1475.250000	1601.998535
1473.597656	1601.661133
1471.943359	1619.316162
1470.289063	1606.982666
1468.634766	1576.669434
1466.978516	1640.769409
1465.324219	1525.069702
1463.667969	1629.593506
1462.011719	1639.732422
1460.355469	1640.884033
1458.699219	1567.192993
1457.041016	1568.359131
1455.382813	1599.448975
1453.726563	1578.169189
1452.068359	1509.039917
1450.408203	1574.513306
1448.750000	1506.908569
1447.089844	1491.644531
1445.431641	1569.034424
1443.771484	1552.269531
1442.111328	1516.093506
1440.451172	1515.773682
1438.789063	1572.190186
1437.126953	1552.452759
1435.466797	1520.784180
1433.804688	1529.415894
1432.142578	1596.224121
1430.478516	1545.176758
1428.816406	1534.412476
1427.152344	1541.542847
1425.488281	1535.255249
1423.824219	1566.225830
1422.160156	1531.627197
1420.494141	1516.407715
1418.830078	1530.980347
1417.164063	1547.035645
1415.498047	1479.719482
1413.832031	1471.965332
1412.166016	1499.926758
1410.498047	1533.827148
1408.830078	1527.553467
1407.164063	1464.773315
1405.494141	1461.490356
1403.826172	1480.505249
1402.158203	1454.928101
1400.488281	1479.879517
1398.818359	1466.197021
1397.150391	1454.005493
1395.478516	1486.365479
1393.808594	1425.183960
1392.138672	1430.819580
1390.466797	1464.647583
1388.794922	1440.599854
1387.123047	1437.328491
1385.451172	1475.582397
1383.777344	1500.475830
1382.105469	1431.969360
1380.431641	1440.558716
1378.757813	1389.874634
1377.083984	1453.281982
1375.410156	1395.210815
1373.734375	1374.184326
1372.060547	1443.476440
1370.384766	1492.016602
1368.708984	1453.224243
1367.033203	1415.927856
1365.355469	1418.586548
1363.679688	1412.370483
1362.001953	1417.985718
1360.324219	1401.424194
1358.646484	1411.473145
1356.968750	1459.937256
1355.289063	1365.077148
1353.609375	1332.292969
1351.931641	1361.545288
1350.250000	1374.544556
1348.570313	1334.398438
1346.890625	1399.050415
1345.208984	1361.866943
1343.529297	1391.081543
1341.847656	1314.094238
1340.164063	1341.831909
1338.482422	1328.279297
1336.800781	1339.788940
1335.117188	1376.344971
1333.433594	1353.953613
1331.750000	1369.869263
1330.066406	1307.726685
1328.382813	1326.589844
1326.697266	1399.910400
1325.011719	1280.403442
1323.326172	1297.788696
1321.640625	1312.224365
1319.955078	1342.832520
1318.267578	1363.134155
1316.582031	1286.396118
1314.894531	1281.713501
1313.207031	1279.971802
1311.517578	1309.084717
1309.830078	1305.868896
1308.140625	1243.910034
1306.453125	1299.441040
1304.763672	1260.997559
1303.072266	1285.680054
1301.382813	1298.613159
1299.693359	1217.649658
1298.001953	1255.526123
1296.310547	1259.658569
1294.619141	1320.967651
1292.927734	1263.520752
1291.234375	1288.165527
1289.542969	1226.354126
1287.849609	1299.336792
1286.156250	1291.737793
1284.462891	1231.429199
1282.767578	1251.662354
1281.074219	1220.660156
1279.378906	1255.520020
1277.683594	1217.215088
1275.988281	1252.060669
1274.292969	1308.827026
1272.595703	1270.534912
1270.900391	1230.797241
1269.203125	1258.302734
1267.505859	1247.807007
1265.808594	1192.030273
1264.109375	1238.512939
1262.412109	1207.585083
1260.712891	1214.627563
1259.013672	1217.288086
1257.314453	1205.354858
1255.613281	1266.374390
1253.914063	1223.803955
1252.212891	1217.709961
1250.511719	1233.488892
1248.810547	1255.091919
1247.109375	1205.272827
1245.408203	1193.359375
1243.705078	1213.500122
1242.001953	1141.874390
1240.298828	1148.911865
1238.595703	1174.872437
1236.892578	1218.288208
1235.187500	1175.826904
1233.482422	1159.572144
1231.777344	1131.687378
1230.072266	1212.886963
1228.367188	1173.370605
1226.662109	1196.379272
1224.955078	1220.831421
1223.248047	1168.260864
1221.541016	1202.877808
1219.833984	1119.832031
1218.125000	1129.758057
1216.417969	1168.716187
1214.708984	1133.630615
1213.000000	1114.523071
1211.291016	1167.968262
1209.580078	1180.774292
1207.871094	1103.657837
1206.160156	1141.121338
1204.449219	1169.870728
1202.738281	1191.361206
1201.027344	1086.776367
1199.314453	1067.710815
1197.603516	1087.760742
1195.890625	1119.386719
1194.177734	1119.147705
1192.464844	1102.986206
1190.750000	1117.222412
1189.037109	1089.493286
1187.322266	1097.939819
1185.607422	1076.011475
1183.892578	1075.781616
1182.177734	1127.594482
1180.460938	1091.220337
1178.744141	1069.311890
1177.027344	1109.535156
1175.310547	1054.410767
1173.593750	1010.862671
1171.876953	1078.504272
1170.158203	1052.291138
1168.439453	1060.725098
1166.720703	1025.869751
1165.001953	1067.484131
1163.281250	1070.140259
1161.562500	1087.214478
1159.841797	1097.073242
1158.121094	1043.510010
1156.400391	1062.019775
1154.677734	1071.877319
1152.957031	1052.922974
1151.234375	1045.497192
1149.511719	1043.833618
1147.789063	1023.457703
1146.066406	1054.900024
1144.341797	1038.846802
1142.619141	1025.677612
1140.894531	1044.154907
1139.169922	1048.245117
1137.445313	1014.955444
1135.718750	1044.921509
1133.994141	1061.941650
1132.267578	1011.429932
1130.541016	1005.467712
1128.814453	1013.868713
1127.085938	983.500366
1125.359375	976.112305
1123.630859	1004.606140
1121.902344	1001.521118
1120.173828	1074.467773
1118.443359	991.052185
1116.714844	969.330872
1114.984375	984.892761
1113.253906	983.248291
1111.523438	1004.532410
1109.792969	992.855408
1108.060547	996.939636
1106.330078	1002.454102
1104.597656	977.898926
1102.865234	976.257690
1101.132813	960.305481
1099.398438	954.376038
1097.666016	1007.101257
1095.931641	968.268799
1094.197266	1003.809143
1092.462891	944.979248
1090.726563	1011.954102
1088.992188	960.292603
1087.255859	962.943848
1085.519531	934.169189
1083.783203	965.386475
1082.046875	933.768005
1080.308594	913.582825
1078.570313	966.191711
1076.833984	970.264771
1075.093750	922.980042
1073.355469	948.454163
1071.617188	933.990967
1069.876953	939.492798
1068.136719	936.440247
1066.396484	960.464294
1064.656250	921.790588
1062.914063	905.923889
1061.173828	919.970154
1059.431641	949.672058
1057.689453	936.656494
1055.947266	915.107300
1054.203125	957.596802
1052.460938	914.713684
1050.716797	941.539978
1048.972656	927.117859
1047.228516	966.724731
1045.484375	930.983032
1043.738281	923.677490
1041.992188	961.838562
1040.246094	930.382141
1038.500000	957.164246
1036.753906	939.920349
1035.005859	926.942444
1033.259766	999.122498
1031.511719	942.151245
1029.763672	970.320313
1028.015625	981.457703
1026.265625	982.664307
1024.515625	956.934448
1022.767578	983.658447
1021.015625	967.858765
1019.265625	1011.569946
1017.515625	1028.349487
1015.763672	1074.861084
1014.011719	1032.153931
1012.259766	1036.178101
1010.507813	1095.394775
1008.755859	1042.806152
1007.001953	1060.971558
1005.248047	1062.157104
1003.494141	1115.660889
1001.740234	1132.384888
999.986328	1088.324951
998.230469	1162.984741
996.476563	1198.053955
994.720703	1216.157959
992.962891	1306.275757
991.207031	1317.289063
989.451172	1415.815430
987.693359	1480.428711
985.935547	1569.000488
984.177734	1512.235107
982.419922	1537.295288
980.660156	1524.272949
978.900391	1459.095215
977.140625	1491.197510
975.380859	1595.152344
973.621094	1515.912842
971.861328	1452.201294
970.099609	1474.419434
968.337891	1464.245483
966.576172	1479.413086
964.814453	1456.576416
963.050781	1502.693237
961.289063	1450.320190
959.525391	1437.349121
957.761719	1442.662964
955.998047	1490.148438
954.232422	1458.905396
952.466797	1471.236816
950.703125	1455.464966
948.937500	1457.959473
947.169922	1463.261475
945.404297	1443.289307
943.636719	1518.775635
941.871094	1487.572998
940.103516	1419.904053
938.335938	1342.444946
936.566406	1336.544678
934.798828	1233.898071
933.029297	1100.455078
931.259766	1062.375122
929.490234	1029.916504
927.718750	986.264343
925.949219	960.839355
924.177734	918.621277
922.406250	912.822266
920.634766	888.829224
918.863281	927.820801
917.089844	899.637390
915.316406	843.489685
913.542969	832.118835
911.769531	826.345764
909.996094	841.543823
908.220703	877.699402
906.447266	919.428467
904.671875	845.187988
902.896484	864.558716
901.119141	881.128174
899.343750	837.658203
897.566406	827.706055
895.789063	823.340210
894.011719	791.072327
892.234375	836.932129
890.455078	873.009888
888.677734	839.357788
886.898438	887.965088
885.119141	855.717896
883.337891	852.745544
881.558594	805.196106
879.777344	863.517822
877.996094	817.379028
876.214844	787.966187
874.433594	815.632507
872.650391	794.582092
870.869141	805.539734
869.085938	780.327637
867.302734	846.909729
865.519531	821.699524
863.734375	828.471375
861.951172	826.901794
860.166016	842.006165
858.380859	811.262085
856.593750	836.085083
854.808594	802.578430
853.021484	792.686401
851.234375	793.902161
849.447266	831.195923
847.660156	835.177368
845.873047	775.353333
844.083984	845.908325
842.294922	822.155090
840.505859	795.639893
838.716797	842.585205
836.925781	788.366394
835.136719	831.137085
833.345703	865.579529
831.554688	828.006409
829.763672	865.203125
827.970703	841.486572
826.179688	864.826843
824.386719	900.607666
822.593750	853.385620
820.798828	882.239197
819.005859	864.074524
817.210938	903.970825
815.417969	822.240967
813.621094	857.984070
811.826172	827.408325
810.031250	800.988953
808.234375	831.190308
806.437500	777.173218
804.640625	833.588623
802.843750	811.330078
801.046875	819.430481
799.248047	845.457092
797.449219	808.042297
795.650391	792.701538
793.851563	858.687805
792.050781	855.744690
790.251953	873.468506
788.451172	882.920044
786.650391	871.710754
784.849609	853.622192
783.046875	875.460327
781.244141	832.606995
779.443359	821.418213
777.640625	872.136658
775.835938	818.309387
774.033203	778.255676
772.228516	866.067444
770.423828	876.873779
768.619141	873.934326
766.814453	868.248474
765.009766	895.529236
763.203125	877.482117
761.396484	853.951172
759.589844	883.962280
757.783203	900.237122
755.974609	876.716431
754.167969	857.321045
752.359375	865.362427
750.550781	880.255737
748.740234	851.276428
746.931641	841.496948
745.121094	860.496216
743.310547	783.592896
741.500000	805.335693
739.689453	784.619995
737.876953	754.330139
736.066406	729.528320
734.253906	714.316284
732.441406	751.099548
730.626953	723.578918
728.814453	724.788330
727.000000	734.200500
725.185547	727.205383
723.371094	683.314270
721.556641	715.956848
719.740234	672.087280
717.925781	692.426331
716.109375	684.082275
714.291016	709.870239
712.474609	690.607300
710.658203	679.539917
708.839844	718.954224
707.021484	726.980530
705.203125	691.366760
703.382813	704.848938
701.564453	707.420776
699.744141	693.638489
697.923828	658.062988
696.103516	655.194641
694.283203	708.163452
692.460938	713.454651
690.638672	686.073303
688.816406	665.508667
686.994141	674.887573
685.171875	685.622681
683.347656	681.392273
681.523438	690.761414
679.699219	704.204773
677.875000	651.042786
676.050781	709.331726
674.224609	698.307678
672.398438	704.946045
670.572266	696.643616
668.746094	653.045105
666.917969	704.482544
665.091797	689.400146
663.263672	685.178650
661.435547	667.394043
659.607422	667.247681
657.777344	668.457214
655.947266	687.289001
654.119141	674.940552
652.287109	708.667603
650.457031	703.093323
648.626953	692.103760
646.794922	750.178772
644.962891	748.660339
643.130859	794.515686
641.298828	820.052490
639.464844	810.402039
637.630859	846.745056
635.796875	847.911499
633.962891	872.061951
632.128906	932.698608
630.292969	929.790955
628.458984	939.044739
626.623047	934.785950
624.785156	877.857483
622.949219	915.471741
621.111328	924.720337
619.275391	855.684448
617.437500	871.688782
615.597656	833.723389
613.759766	833.540161
611.919922	815.826782
610.080078	776.550293
608.240234	853.208801
606.400391	830.112244
604.560547	912.114319
602.718750	886.320923
600.876953	919.793396
599.035156	906.127136
597.193359	897.851196
595.349609	923.223999
593.507813	944.549072
591.664063	883.806580
589.820313	866.128174
587.974609	926.445618
586.130859	865.747009
584.285156	849.428040
582.439453	865.365906
580.593750	832.932861
578.748047	859.612366
576.900391	835.251831
575.052734	796.133850
573.205078	814.750183
571.357422	861.539368
569.509766	837.199646
567.660156	850.428894
565.810547	854.264832
563.960938	809.830872
562.111328	823.057251
560.259766	820.195557
558.410156	795.896729
556.558594	786.344116
554.707031	767.420532
552.855469	820.811707
551.001953	812.598450
549.148438	781.635681
547.294922	820.268921
545.441406	857.547180
543.587891	869.395874
541.732422	869.204102
539.878906	919.816162
538.023438	955.702759
536.167969	1041.018433
534.310547	1161.033936
532.455078	1307.711670
530.597656	1541.130005
528.740234	2116.249512
526.882813	3398.600586
525.023438	7005.230469
523.166016	15595.172852
521.306641	25059.089844
519.447266	21565.931641
517.585938	9800.531250
515.726563	4228.628418
513.865234	2421.728027
512.003906	1717.621338
510.142578	1322.902466
508.281250	1118.824341
506.417969	1014.709229
504.556641	967.887939
502.693359	846.548462
500.828125	815.753967
498.964844	757.033325
497.101563	734.253113
495.236328	727.441406
493.371094	719.303101
491.505859	713.826965
489.638672	708.353149
487.771484	673.650330
485.906250	657.560486
484.039063	677.336731
482.169922	653.286194
480.302734	666.416931
478.433594	666.269470
476.564453	666.122070
474.695313	691.180847
472.826172	746.734558
470.955078	734.634827
469.083984	771.593567
467.212891	787.328369
465.341797	812.332397
463.470703	810.827698
461.597656	841.113708
459.724609	878.007690
457.851563	966.521423
455.978516	976.897034
454.105469	1097.111450
452.230469	1148.470215
450.355469	1137.633179
448.480469	1184.992432
446.605469	1149.029297
444.728516	1114.403931
442.851563	1164.379883
440.976563	1139.015991
439.097656	1105.736694
437.220703	1060.585083
435.341797	1015.453430
433.464844	1050.873535
431.585938	1013.683289
429.705078	984.427124
427.826172	1001.359924
425.945313	958.929077
424.064453	966.628784
422.183594	913.676880
420.302734	985.972107
418.421875	1026.606689
416.539063	1100.162231
414.656250	1194.761353
412.773438	1364.385986
410.888672	1626.102905
409.005859	2285.253418
407.121094	3344.205078
405.236328	4448.739746
403.351563	4659.549316
401.464844	3962.762451
399.580078	2711.384521
397.693359	1790.536133
395.806641	1387.948730
393.917969	1170.821655
392.031250	1166.620239
390.142578	1609.000244
388.253906	2558.070313
386.365234	3059.024170
384.476563	2398.109375
382.585938	1478.964844
380.695313	1077.160767
378.804688	1036.258057
376.914063	987.504822
375.023438	957.129150
373.130859	964.781372
371.238281	901.660278
369.345703	824.154297
367.453125	795.151672
365.558594	802.832886
363.666016	780.394653
361.771484	757.966431
359.875000	753.871338
357.980469	722.299255
356.083984	695.974060
354.189453	724.593689
352.292969	695.664307
350.394531	709.890259
348.498047	696.661682
346.599609	699.120056
344.701172	671.528381
342.802734	670.072693
340.904297	694.735413
339.003906	647.578979
337.105469	668.319702
335.205078	674.695923
333.302734	664.107788
331.402344	617.000000
329.500000	646.857910
327.597656	684.525635
325.695313	724.783691
323.792969	664.671387
321.890625	693.188904
319.986328	682.612793
318.082031	688.972656
316.177734	690.121155
314.271484	700.381836
312.367188	704.130249
310.460938	671.442078
308.554688	733.738098
306.648438	790.803650
304.740234	811.433167
302.833984	800.851440
300.925781	778.576233
299.017578	749.813416
297.107422	732.756287
295.199219	731.293823
293.289063	709.053833
291.378906	651.768433
289.468750	687.968384
287.556641	668.348328
285.646484	660.414246
283.734375	675.832947
281.822266	626.400024
279.910156	618.480469
277.996094	665.009644
276.082031	635.052490
274.167969	593.447021
272.253906	615.337036
270.339844	581.525452
268.423828	633.190186
266.507813	599.389587
264.591797	626.435669
262.675781	636.647644
260.759766	619.687073
258.841797	604.027466
256.923828	611.651184
255.005859	599.878784
253.085938	601.037170
251.167969	568.596130
249.248047	617.564026
247.328125	585.133667
245.408203	606.956543
243.486328	608.111816
241.566406	606.684875
239.644531	593.643799
237.722656	603.832886
235.798828	606.277588
233.876953	608.721191
231.953125	621.478699
230.029297	626.495850
228.105469	641.821167
226.179688	630.080811
224.253906	619.633972
222.330078	611.767578
220.402344	633.520447
218.476563	584.459045
216.550781	616.504761
214.623047	595.778137
212.695313	598.217651
210.767578	603.228394
208.837891	579.946716
206.908203	633.812988
204.980469	610.534790
203.048828	587.267090
201.119141	642.380066
199.189453	589.572693
197.257813	599.713928
195.326172	597.011597
193.394531	619.982666
191.460938	573.644043
189.529297	605.591187
187.595703	614.434509
185.662109	583.517700
183.726563	620.569641
181.792969	589.665222
179.857422	610.038330
177.921875	572.743530
175.986328	591.830261
174.048828	545.591064
172.113281	562.114319
170.175781	577.349976
168.238281	561.861877
166.298828	556.617371
164.361328	551.375183
162.421875	561.483337
160.482422	569.029541
158.542969	566.344849
156.601563	547.045410
154.662109	564.812439
152.720703	590.236877
150.779297	568.390442
148.835938	537.614807
146.894531	574.518494
144.951172	574.389282
143.007813	535.976135
141.064453	532.028076
139.119141	548.490723
137.175781	479.502625
135.230469	498.519531
133.285156	485.660400
131.337891	490.648804
129.392578	504.553772
127.445313	472.594269
125.498047	527.250671
123.550781	496.573639
121.601563	511.737610
119.652344	487.441254
117.705078	482.241913
115.753906	487.221802
113.804688	455.316284
111.853516	441.226746
109.904297	410.617126
107.953125	387.647095
106.000000	268.115143
104.048828	226.131485
