#Wave		#Intensity
5504.711914	2643.481201
5503.824219	2799.966309
5502.936523	2693.319092
5502.048828	2715.205566
5501.160156	2748.256348
5500.272461	2717.069092
5499.383789	2669.140381
5498.496094	2763.594971
5497.607422	2757.539795
5496.718750	2723.581299
5495.830078	2812.397705
5494.940430	2756.124268
5494.051758	2791.911133
5493.162109	2679.887451
5492.272461	2679.428711
5491.382813	2784.902100
5490.493164	2798.361572
5489.603516	2764.441650
5488.712891	2716.602051
5487.823242	2791.353027
5486.932617	2871.648926
5486.041992	2882.296387
5485.151367	2812.194092
5484.260742	2814.496338
5483.369141	2822.364502
5482.478516	2949.895508
5481.586914	2807.485840
5480.695313	2773.621338
5479.803711	2795.398193
5478.912109	2717.051025
5478.020508	2822.245850
5477.127930	2810.642334
5476.236328	2904.666748
5475.343750	2837.470459
5474.451172	2931.457764
5473.558594	2903.174072
5472.666016	2874.899902
5471.772461	2846.635254
5470.879883	2932.226074
5469.986328	2831.778320
5469.092773	2933.996826
5468.199219	2941.820068
5467.305664	2944.090576
5466.411133	2954.683350
5465.517578	2829.352539
5464.623047	2909.296143
5463.728516	3016.941650
5462.833984	2899.981689
5461.939453	2880.080566
5461.044922	2921.159424
5460.150391	3073.064941
5459.254883	2839.812012
5458.359375	2988.908936
5457.463867	2888.690918
5456.568359	2954.654541
5455.672852	2967.991211
5454.777344	3014.541260
5453.880859	2966.973389
5452.984375	3052.248291
5452.087891	2977.022705
5451.191406	3026.304932
5450.294922	2987.064697
5449.398438	3083.338867
5448.500977	2969.450928
5447.604492	3046.344238
5446.707031	3095.571777
5445.809570	3012.137939
5444.912109	2983.991455
5444.013672	3085.691406
5443.116211	2977.443604
5442.217773	3004.548096
5441.320313	2957.094482
5440.421875	3042.165039
5439.523438	3080.284668
5438.624023	3123.910156
5437.725586	3070.949951
5436.826172	3048.353271
5435.927734	3177.466309
5435.028320	3160.374512
5434.128906	3044.026611
5433.229492	3128.964844
5432.329102	3045.737793
5431.429688	3108.599609
5430.529297	3245.834717
5429.628906	3060.698730
5428.728516	3239.211426
5427.828125	3147.774414
5426.927734	3158.248047
5426.026367	3171.470703
5425.125977	3165.420898
5424.224609	3175.885498
5423.323242	3167.085449
5422.421875	3188.550293
5421.520508	3116.485840
5420.618164	3192.955566
5419.716797	3200.656006
5418.814453	3161.616943
5417.912109	3089.606201
5417.009766	3188.013672
5416.107422	3272.648193
5415.205078	3258.349365
5414.301758	3136.927002
5413.399414	3224.272949
5412.496094	3341.793701
5411.592773	3305.528564
5410.689453	3208.885986
5409.785156	3271.458252
5408.881836	3320.288818
5407.977539	3248.385254
5407.073242	3299.945801
5406.168945	3304.863770
5405.264648	3370.107422
5404.360352	3265.344238
5403.456055	3240.111816
5402.550781	3239.554932
5401.645508	3343.128174
5400.740234	3471.323730
5399.834961	3273.495361
5398.929688	3327.709717
5398.024414	3299.753662
5397.118164	3416.916504
5396.212891	3336.943115
5395.306641	3434.900146
5394.400391	3294.747803
5393.493164	3403.622314
5392.586914	3353.796875
5391.680664	3347.749756
5390.773438	3511.250977
5389.866211	3373.939697
5388.958984	3389.761230
5388.051758	3596.901855
5387.144531	3440.516846
5386.236328	3450.854004
5385.329102	3463.919189
5384.420898	3550.725830
5383.512695	3492.766846
5382.604492	3478.513672
5381.696289	3349.608887
5380.787109	3556.470459
5379.878906	3520.381836
5378.969727	3525.232910
5378.060547	3530.082031
5377.151367	3543.112305
5376.242188	3327.061523
5375.332031	3473.726807
5374.422852	3544.009033
5373.512695	3401.662842
5372.602539	3401.077148
5371.692383	3384.143066
5370.782227	3454.391846
5369.872070	3603.606934
5368.960938	3564.859375
5368.050781	3572.414063
5367.139648	3563.631836
5366.228516	3514.023193
5365.317383	3567.847168
5364.405273	3648.862793
5363.494141	3563.897705
5362.582031	3702.007080
5361.669922	3649.697021
5360.757813	3640.910889
5359.845703	3637.565186
5358.933594	3639.656494
5358.021484	3500.425781
5357.108398	3692.747559
5356.195313	3637.775635
5355.282227	3691.475098
5354.369141	3758.735107
5353.456055	3782.525879
5352.542969	3773.729248
5351.628906	3710.646729
5350.714844	3772.428467
5349.801758	3769.064941
5348.887695	3703.302246
5347.972656	3805.741699
5347.058594	3609.813965
5346.143555	3771.889893
5345.229492	3654.659424
5344.314453	3762.457275
5343.399414	3656.109375
5342.484375	3725.933105
5341.568359	3757.802246
5340.653320	3724.648193
5339.737305	3770.048096
5338.821289	3799.184814
5337.905273	3849.970947
5336.989258	3814.116455
5336.073242	3789.100098
5335.157227	3726.207764
5334.240234	3879.782227
5333.323242	3941.330322
5332.406250	3886.557617
5331.489258	3942.674805
5330.572266	3768.957764
5329.654297	3871.030273
5328.737305	3894.687256
5327.819336	3931.847412
5326.901367	3814.990234
5325.983398	4019.635742
5325.065430	3870.392578
5324.146484	3948.037354
5323.228516	4020.255127
5322.309570	3930.477539
5321.390625	3902.808838
5320.471680	4004.680908
5319.552734	4006.687744
5318.632813	3995.205566
5317.713867	3910.903320
5316.793945	3988.432861
5315.874023	4025.491699
5314.954102	4024.796631
5314.034180	4029.492188
5313.114258	4036.881104
5312.193359	4020.017578
5311.272461	4229.448730
5310.352539	4131.754395
5309.431641	4004.470459
5308.509766	4076.476807
5307.588867	4159.226563
5306.667969	4053.536133
5305.746094	4109.349609
5304.824219	4138.236816
5303.902344	4188.635742
5302.980469	4144.876465
5302.058594	4197.945801
5301.135742	4162.266113
5300.213867	4056.701660
5299.291016	4155.452148
5298.368164	4170.858398
5297.445313	4202.380859
5296.521484	4255.384277
5295.598633	4278.823242
5294.674805	4176.032715
5293.750977	4226.327637
5292.827148	4053.781250
5291.903320	4168.499512
5290.979492	4307.331055
5290.055664	4387.083496
5289.130859	4163.655273
5288.206055	4227.310547
5287.281250	4301.671387
5286.356445	4317.015625
5285.431641	4238.522949
5284.506836	4323.564453
5283.581055	4472.895996
5282.655273	4359.582520
5281.729492	4281.135742
5280.803711	4333.967285
5279.877930	4274.298828
5278.952148	4313.724609
5278.025391	4412.035156
5277.098633	4419.302246
5276.171875	4354.307129
5275.245117	4401.718262
5274.318359	4347.449707
5273.391602	4451.018555
5272.463867	4300.480469
5271.536133	4433.434570
5270.609375	4363.156250
5269.680664	4391.804688
5268.752930	4513.983398
5267.825195	4334.170410
5266.896484	4552.496094
5265.968750	4506.297852
5265.040039	4588.310547
5264.111328	4574.165039
5263.182617	4608.080566
5262.252930	4524.533203
5261.324219	4585.134277
5260.394531	4568.330078
5259.464844	4599.554688
5258.535156	4486.723633
5257.605469	4685.974121
5256.675781	4551.833984
5255.745117	4631.029297
5254.814453	4638.224121
5253.883789	4698.720215
5252.953125	4668.594727
5252.022461	4691.764160
5251.091797	4824.141602
5250.160156	4607.575684
5249.229492	4620.091797
5248.297852	4757.737305
5247.366211	4743.603516
5246.434570	4721.489746
5245.501953	4784.536621
5244.570313	4836.918945
5243.637695	4713.715820
5242.705078	4853.860352
5241.772461	4706.764160
5240.839844	4881.424316
5239.907227	4784.880859
5238.973633	4781.394043
5238.041016	4918.747070
5237.107422	4782.393555
5236.173828	4919.698730
5235.240234	4780.735840
5234.305664	4825.050781
5233.372070	4887.935547
5232.437500	5011.853516
5231.502930	4756.188477
5230.568359	5004.808594
5229.633789	4916.384766
5228.699219	4968.587402
5227.764648	4766.152344
5226.829102	4908.524414
5225.893555	5026.984375
5224.958008	4991.650879
5224.022461	4921.873535
5223.086914	4881.270020
5222.150391	4983.754883
5221.213867	4982.890625
5220.278320	5000.566406
5219.341797	5147.995117
5218.405273	4975.002441
5217.467773	5037.672852
5216.531250	4856.818848
5215.593750	4990.937500
5214.656250	5056.217773
5213.718750	5076.503906
5212.781250	5202.579590
5211.843750	5011.274414
5210.905273	5018.336914
5209.967773	5070.336914
5209.029297	5193.682617
5208.090820	5261.489746
5207.152344	5168.100098
5206.212891	5164.561523
5205.274414	5176.871094
5204.334961	5014.883789
5203.396484	5354.617188
5202.457031	5242.812500
5201.516602	5186.474121
5200.577148	5185.573730
5199.637695	5295.490723
5198.697266	5241.810059
5197.756836	5354.316406
5196.816406	5234.715332
5195.875977	5297.086426
5194.935547	5409.523926
5193.994141	5237.259766
5193.053711	5436.633301
5192.112305	5256.519531
5191.170898	5353.078613
5190.229492	5315.273438
5189.287109	5467.091797
5188.345703	5384.518555
5187.403320	5499.415527
5186.460938	5340.533691
5185.518555	5339.605957
5184.576172	5446.556641
5183.633789	5500.855469
5182.690430	5494.638672
5181.748047	5446.347168
5180.804688	5550.575195
5179.861328	5360.329102
5178.917969	5319.971191
5177.973633	5468.841309
5177.030273	5709.623535
5176.085938	5527.362793
5175.141602	5615.707031
5174.197266	5693.515625
5173.252930	5529.731934
5172.308594	5646.906250
5171.363281	5656.423828
5170.418945	5597.704590
5169.473633	5654.456543
5168.528320	5787.267578
5167.582031	5668.228027
5166.636719	5575.454102
5165.691406	5755.406250
5164.745117	5539.434082
5163.798828	5748.161621
5162.852539	5770.748047
5161.906250	5641.352539
5160.958984	5642.991211
5160.012695	5807.026367
5159.065430	5703.880371
5158.118164	5820.716309
5157.170898	5777.815918
5156.223633	5737.548340
5155.276367	5883.104004
5154.328125	5748.634277
5153.379883	5726.704590
5152.432617	5723.092285
5151.484375	5905.161621
5150.535156	5872.756348
5149.586914	5806.376465
5148.637695	5915.147461
5147.689453	6047.400879
5146.740234	5782.440918
5145.791016	6019.170410
5144.840820	5874.460938
5143.891602	5977.900879
5142.941406	5877.637207
5141.992188	6012.368652
5141.041992	5854.708496
5140.091797	6005.055176
5139.140625	6061.414063
5138.190430	6089.055664
5137.239258	6234.064941
5136.289063	6094.758301
5135.337891	6020.687012
5134.386719	6249.057129
5133.434570	6104.606445
5132.483398	6129.604004
5131.531250	6089.451172
5130.579102	6203.019531
5129.627930	6165.472168
5128.674805	6268.569824
5127.722656	6483.597656
5126.770508	6211.713867
5125.817383	6314.749512
5124.864258	6412.543457
5123.911133	6304.742188
5122.958008	6420.714355
5122.004883	6409.190918
5121.050781	6324.852051
5120.097656	6344.550781
5119.143555	6413.638672
5118.189453	6412.520508
5117.235352	6203.493164
5116.280273	6420.678223
5115.326172	6390.980957
5114.371094	6275.576172
5113.416016	6513.411133
5112.460938	6491.501953
5111.505859	6487.773926
5110.550781	6442.515625
5109.594727	6514.058594
5108.639648	6510.327637
5107.683594	6439.144531
5106.727539	6515.837891
5105.770508	6576.943848
5104.814453	6562.831543
5103.857422	6504.650879
5102.901367	6570.909668
5101.944336	6867.799805
5100.987305	6752.589844
5100.030273	6686.643555
5099.072266	6543.012207
5098.115234	6842.288574
5097.157227	6797.075195
5096.199219	6858.022461
5095.241211	6846.471680
5094.282227	6801.280762
5093.324219	6714.704102
5092.365234	6723.880371
5091.407227	6704.599609
5090.448242	6931.014648
5089.489258	6919.461426
5088.529297	6861.376953
5087.570313	6994.590820
5086.610352	6866.733887
5085.650391	6844.863281
5084.690430	6895.337891
5083.730469	6966.458496
5082.770508	7091.788574
5081.809570	6927.875488
5080.849609	6936.992188
5079.888672	6819.624512
5078.927734	7133.289063
5077.966797	7129.462402
5077.004883	7102.417969
5076.043945	7034.111816
5075.082031	7084.462402
5074.120117	7023.918457
5073.158203	7133.548828
5072.196289	7297.270508
5071.234375	7040.854492
5070.271484	7127.232422
5069.308594	7252.224609
5068.345703	7395.203613
5067.382813	7244.539063
5066.419922	7093.926758
5065.457031	7283.197754
5064.493164	7248.462402
5063.529297	7252.342285
5062.565430	7364.291992
5061.601563	7316.696289
5060.637695	7467.178223
5059.673828	7386.147461
5058.708984	7446.567871
5057.744141	7548.100586
5056.779297	7361.709473
5055.814453	7650.830078
5054.849609	7613.518555
5053.883789	7553.097656
5052.918945	7541.501953
5051.953125	7473.410156
5050.987305	7597.921875
5050.020508	7581.188965
5049.054688	7664.567871
5048.088867	7588.801758
5047.122070	7582.342285
5046.155273	7524.574707
5045.188477	7733.590820
5044.221680	7791.223145
5043.253906	7828.321777
5042.287109	7678.257813
5041.319336	7664.097656
5040.351563	7847.277344
5039.383789	7761.346191
5038.416016	7821.473145
5037.447266	7891.824707
5036.479492	7867.394043
5035.510742	7960.757324
5034.541992	7931.202148
5033.573242	7893.978516
5032.604492	7987.286621
5031.634766	7955.183105
5030.665039	7813.083008
5029.696289	8131.447754
5028.726563	8050.743652
5027.755859	8133.713379
5026.786133	8009.576172
5025.815430	7949.383301
5024.845703	8226.553711
5023.875000	8025.809082
5022.904297	8103.599609
5021.933594	8204.351563
5020.961914	8072.668457
5019.991211	8084.020996
5019.019531	8248.544922
5018.047852	8198.602539
5017.076172	8355.392578
5016.104492	8310.551758
5015.131836	8311.646484
5014.160156	8491.289063
5013.187500	8428.594727
5012.214844	8205.284180
5011.242188	8389.949219
5010.268555	8243.190430
5009.295898	8249.390625
5008.322266	8365.153320
5007.348633	8447.756836
5006.375000	8553.254883
5005.401367	8437.154297
5004.427734	8420.397461
5003.453125	8452.016602
5002.479492	8559.984375
5001.504883	8487.225586
5000.530273	8679.115234
4999.554688	8578.376953
4998.580078	8546.349609
4997.604492	8745.755859
4996.629883	8650.143555
4995.654297	8702.012695
4994.678711	8471.726563
4993.702148	8653.215820
4992.726563	8644.075195
4991.750000	8919.465820
4990.773438	8821.380859
4989.796875	8868.083984
4988.820313	9021.413086
4987.843750	8674.573242
4986.866211	8794.884766
4985.889648	8869.473633
4984.912109	8987.170898
4983.934570	8904.413086
4982.957031	8961.188477
4981.978516	9020.478516
4981.000977	8859.156250
4980.022461	9095.899414
4979.043945	9253.985352
4978.065430	9057.226563
4977.086914	9035.366211
4976.107422	9074.312500
4975.127930	9184.165039
4974.149414	9309.173828
4973.169922	9163.215820
4972.189453	9356.534180
4971.209961	9218.211914
4970.230469	9209.000977
4969.250000	9194.732422
4968.269531	9327.194336
4967.289063	9381.200195
4966.308594	9283.455078
4965.327148	9410.773438
4964.346680	9522.878906
4963.365234	9321.531250
4962.383789	9441.193359
4961.402344	9616.398438
4960.420898	9359.562500
4959.438477	9509.462891
4958.457031	9581.025391
4957.474609	9516.219727
4956.492188	9600.377930
4955.509766	9798.084961
4954.527344	9690.374023
4953.543945	9698.762695
4952.560547	9616.333008
4951.577148	9619.686523
4950.593750	9733.996094
4949.610352	9644.038086
4948.626953	9743.177734
4947.642578	9718.780273
4946.658203	9792.670898
4945.674805	9874.092773
4944.689453	9869.837891
4943.705078	10019.220703
4942.720703	9929.321289
4941.735352	10181.869141
4940.750000	9966.105469
4939.764648	9742.866211
4938.779297	10131.201172
4937.793945	10297.990234
4936.807617	10215.680664
4935.821289	10098.187500
4934.835938	10136.645508
4933.849609	10361.142578
4932.862305	10128.050781
4931.875977	10475.623047
4930.888672	10345.621094
4929.902344	10127.728516
4928.915039	10359.563477
4927.926758	10528.527344
4926.939453	10441.294922
4925.952148	10323.965820
4924.963867	10593.254883
4923.975586	10639.076172
4922.987305	10371.209961
4921.999023	10449.668945
4921.010742	10550.676758
4920.021484	10646.632813
4919.032227	10697.416992
4918.042969	10728.125977
4917.053711	10666.075195
4916.064453	10583.996094
4915.075195	10589.649414
4914.084961	10708.042969
4913.094727	10786.314453
4912.104492	10922.163086
4911.114258	10759.978516
4910.124023	10818.168945
4909.132813	10901.371094
4908.142578	10829.374023
4907.151367	10922.552734
4906.160156	11150.799805
4905.167969	10863.671875
4904.176758	10981.804688
4903.184570	11124.900391
4902.193359	11132.940430
4901.201172	11270.958008
4900.208984	11301.461914
4899.215820	11219.508789
4898.223633	11222.527344
4897.230469	11282.996094
4896.237305	11286.000977
4895.244141	11241.562500
4894.250977	11304.491211
4893.257813	11472.234375
4892.263672	11288.025391
4891.269531	11647.846680
4890.275391	11553.484375
4889.281250	11653.715820
4888.287109	11634.203125
4887.292969	11455.113281
4886.297852	11385.779297
4885.302734	11573.209961
4884.307617	11685.807617
4883.312500	11551.684570
4882.317383	11729.019531
4881.321289	11724.458984
4880.325195	11919.132813
4879.329102	11785.061523
4878.333008	11735.679688
4877.336914	11820.727539
4876.340820	11987.870117
4875.343750	12055.423828
4874.346680	11968.711914
4873.349609	11896.953125
4872.352539	12088.832031
4871.355469	11867.888672
4870.357422	11957.776367
4869.360352	11826.415039
4868.362305	12261.712891
4867.364258	12274.456055
4866.365234	12217.634766
4865.367188	12349.603516
4864.368164	12243.120117
4863.370117	12288.133789
4862.371094	12045.160156
4861.371094	12325.989258
4860.372070	12383.371094
4859.373047	12433.289063
4858.373047	12455.900391
4857.373047	12458.660156
4856.373047	12359.744141
4855.373047	12486.491211
4854.372070	12422.309570
4853.372070	12784.464844
4852.371094	12782.205078
4851.370117	12529.699219
4850.369141	12430.872070
4849.368164	12703.602539
4848.366211	12582.490234
4847.364258	12820.432617
4846.363281	12860.250000
4845.361328	12862.926758
4844.358398	12870.551758
4843.356445	12880.647461
4842.353516	12846.210938
4841.351563	12937.925781
4840.348633	12965.313477
4839.344727	13027.303711
4838.341797	12995.335938
4837.338867	12921.362305
4836.334961	13022.865234
4835.331055	13156.450195
4834.327148	13030.610352
4833.323242	13174.024414
4832.318359	13260.591797
4831.314453	13159.488281
4830.309570	13408.948242
4829.304688	13399.171875
4828.299805	13510.312500
4827.294922	13537.528320
4826.289063	13268.722656
4825.284180	13419.287109
4824.278320	13616.649414
4823.272461	13380.021484
4822.265625	13298.773438
4821.259766	13584.775391
4820.252930	13478.876953
4819.247070	13619.385742
4818.240234	13565.246094
4817.233398	13481.571289
4816.225586	13759.898438
4815.218750	13777.158203
4814.210938	13715.641602
4813.203125	13907.639648
4812.195313	13764.919922
4811.187500	13523.840820
4810.179688	13806.781250
4809.170898	13927.303711
4808.162109	13664.191406
4807.153320	13814.197266
4806.144531	14023.142578
4805.135742	13880.574219
4804.125977	14091.889648
4803.117188	14128.701172
4802.107422	14079.528320
4801.097656	14194.915039
4800.086914	14280.795898
4799.077148	14403.470703
4798.066406	14273.281250
4797.055664	14270.751953
4796.045898	14295.212891
4795.034180	14015.461914
4794.023438	14123.354492
4793.011719	14478.899414
4792.000977	14483.689453
4790.989258	14721.371094
4789.977539	14608.461914
4788.965820	14314.245117
4787.953125	14573.879883
4786.940430	14688.885742
4785.928711	14465.839844
4784.916016	14384.910156
4783.902344	14886.745117
4782.889648	14778.839844
4781.876953	14778.666016
4780.863281	14656.133789
4779.849609	14900.655273
4778.835938	14638.703125
4777.821289	15017.663086
4776.807617	15044.344727
4775.792969	14836.294922
4774.779297	15122.122070
4773.763672	15060.780273
4772.749023	14955.471680
4771.734375	14933.272461
4770.718750	15184.677734
4769.704102	14935.299805
4768.688477	15057.190430
4767.671875	15137.530273
4766.656250	15271.544922
4765.640625	15212.699219
4764.624023	15275.884766
4763.607422	15490.316406
4762.590820	15387.551758
4761.574219	15382.380859
4760.556641	15496.698242
4759.540039	15696.306641
4758.522461	15705.708008
4757.504883	15259.347656
4756.487305	15400.407227
4755.468750	15702.215820
4754.451172	15738.401367
4753.432617	15769.703125
4752.414063	15669.500000
4751.395508	15700.800781
4750.376953	15800.248047
4749.357422	15583.271484
4748.338867	15787.334961
4747.319336	15565.570313
4746.299805	15956.861328
4745.280273	15730.281250
4744.259766	15897.696289
4743.240234	16135.555664
4742.219727	15780.233398
4741.199219	15996.155273
4740.178711	16153.682617
4739.158203	15973.463867
4738.136719	16300.967773
4737.115234	16047.928711
4736.094727	16270.891602
4735.073242	16498.630859
4734.050781	16095.198242
4733.029297	16220.958984
4732.006836	16531.080078
4730.984375	16025.964844
4729.961914	16340.861328
4728.939453	16410.708984
4727.916992	16272.007813
4726.893555	16654.568359
4725.871094	16644.335938
4724.847656	16563.826172
4723.824219	16599.648438
4722.799805	16817.144531
4721.776367	16615.541016
4720.751953	16690.078125
4719.727539	16822.697266
4718.703125	17030.314453
4717.678711	16763.462891
4716.654297	16850.019531
4715.628906	16897.830078
4714.603516	16923.851563
4713.578125	16942.607422
4712.552734	17075.011719
4711.527344	17229.128906
4710.500977	17238.148438
4709.474609	17024.808594
4708.449219	17142.601563
4707.421875	17202.367188
4706.395508	17216.214844
4705.369141	17399.119141
4704.341797	17572.300781
4703.314453	17279.449219
4702.287109	17421.207031
4701.259766	17577.394531
4700.231445	17523.589844
4699.204102	17855.824219
4698.175781	17334.021484
4697.147461	17393.640625
4696.119141	17204.869141
4695.090820	17867.214844
4694.061523	17601.289063
4693.032227	17853.619141
4692.002930	17650.439453
4690.973633	17543.699219
4689.944336	18048.820313
4688.915039	17848.123047
4687.884766	17929.218750
4686.854492	17740.646484
4685.824219	18295.919922
4684.793945	17972.578125
4683.762695	18039.154297
4682.732422	18043.156250
4681.701172	18023.103516
4680.669922	18173.802734
4679.638672	18273.955078
4678.607422	17977.404297
4677.575195	18344.355469
4676.542969	18444.419922
4675.510742	18414.701172
4674.478516	18442.648438
4673.446289	18352.890625
4672.413086	18572.953125
4671.380859	18432.781250
4670.347656	18283.056641
4669.314453	18409.404297
4668.281250	18547.707031
4667.247070	18513.207031
4666.213867	18665.832031
4665.179688	18631.322266
4664.145508	18589.628906
4663.111328	18718.181641
4662.076172	18918.601563
4661.041992	18665.962891
4660.006836	18983.740234
4658.971680	18853.369141
4657.936523	19024.873047
4656.900391	18741.257813
4655.865234	18764.251953
4654.829102	19124.820313
4653.792969	19030.443359
4652.756836	18835.578125
4651.720703	19047.578125
4650.684570	19276.248047
4649.647461	19535.931641
4648.610352	18991.935547
4647.573242	19182.230469
4646.536133	19068.830078
4645.498047	19158.648438
4644.460938	19379.878906
4643.422852	19550.849609
4642.384766	19645.310547
4641.346680	19531.921875
4640.308594	19485.445313
4639.269531	19412.718750
4638.230469	19636.048828
4637.191406	19706.537109
4636.152344	19502.548828
4635.113281	19754.375000
4634.073242	19528.978516
4633.034180	19575.578125
4631.994141	19817.714844
4630.954102	19809.402344
4629.914063	19696.201172
4628.873047	19723.666016
4627.832031	19791.632813
4626.791992	19888.167969
4625.750977	19836.966797
4624.708984	19978.710938
4623.667969	20110.878906
4622.625977	19947.757813
4621.584961	19679.949219
4620.542969	20038.208984
4619.500000	20146.470703
4618.458008	20314.173828
4617.416016	20113.097656
4616.373047	20245.070313
4615.330078	20029.806641
4614.287109	20375.726563
4613.244141	20348.310547
4612.200195	20503.908203
4611.156250	20398.060547
4610.112305	20137.816406
4609.068359	20388.386719
4608.024414	20596.113281
4606.980469	20592.427734
4605.935547	20394.060547
4604.890625	20651.523438
4603.845703	20415.242188
4602.800781	20300.062500
4601.754883	20533.673828
4600.709961	20726.876953
4599.664063	20730.281250
4598.618164	20522.648438
4597.572266	20592.466797
4596.526367	20790.259766
4595.479492	20800.755859
4594.432617	20621.689453
4593.385742	21077.595703
4592.338867	20569.298828
4591.291992	20520.619141
4590.244141	20848.435547
4589.197266	21206.908203
4588.149414	20935.644531
4587.101563	20917.695313
4586.052734	21190.781250
4585.004883	21002.462891
4583.956055	21010.525391
4582.907227	21080.070313
4581.858398	21173.234375
4580.809570	21261.634766
4579.759766	21118.375000
4578.710938	21038.970703
4577.661133	21049.376953
4576.611328	21404.669922
4575.561523	21228.417969
4574.510742	21444.226563
4573.460938	21206.642578
4572.410156	21342.115234
4571.359375	21357.169922
4570.308594	21525.603516
4569.256836	21236.265625
4568.206055	21329.171875
4567.154297	21613.082031
4566.102539	21559.685547
4565.050781	21419.076172
4563.999023	21353.947266
4562.946289	21236.992188
4561.893555	21482.957031
4560.840820	21592.189453
4559.788086	21892.177734
4558.735352	21676.291016
4557.681641	21401.615234
4556.628906	21882.750000
4555.575195	21403.351563
4554.521484	21766.640625
4553.467773	21678.027344
4552.413086	21570.625000
4551.358398	21750.220703
4550.304688	21678.117188
4549.249023	21820.005859
4548.194336	21849.001953
4547.139648	21668.796875
4546.083984	21845.859375
4545.028320	22135.636719
4543.972656	22047.091797
4542.916992	21986.763672
4541.861328	22018.041016
4540.804688	22082.175781
4539.748047	22289.486328
4538.691406	22355.894531
4537.634766	22124.255859
4536.578125	21927.890625
4535.520508	22498.675781
4534.462891	22321.074219
4533.405273	22089.603516
4532.347656	22439.662109
4531.290039	22512.986328
4530.231445	22262.853516
4529.173828	22237.763672
4528.115234	22496.167969
4527.055664	22143.101563
4525.997070	22525.556641
4524.938477	22301.396484
4523.878906	22297.388672
4522.819336	22394.033203
4521.759766	22605.320313
4520.700195	22528.718750
4519.639648	22316.453125
4518.579102	22646.929688
4517.519531	22448.750000
4516.458008	22451.728516
4515.397461	22723.552734
4514.336914	22364.183594
4513.275391	22584.511719
4512.213867	22837.470703
4511.152344	22349.785156
4510.090820	22366.785156
4509.028320	22827.486328
4507.966797	22641.259766
4506.904297	22707.220703
4505.841797	22829.173828
4504.779297	22575.369141
4503.715820	22683.300781
4502.653320	22893.835938
4501.589844	22810.416016
4500.526367	22755.009766
4499.461914	22680.968750
4498.398438	22996.246094
4497.333984	22912.865234
4496.270508	23032.244141
4495.206055	22858.021484
4494.140625	23110.142578
4493.076172	23059.402344
4492.010742	23031.964844
4490.946289	23032.474609
4489.880859	23249.462891
4488.815430	23187.093750
4487.749023	23380.705078
4486.683594	23071.726563
4485.617188	23160.615234
4484.550781	23254.121094
4483.484375	22926.726563
4482.416992	23310.839844
4481.350586	23050.957031
4480.283203	23321.033203
4479.215820	23172.773438
4478.148438	23170.921875
4477.081055	23299.140625
4476.012695	23348.355469
4474.944336	23276.814453
4473.875977	23337.621094
4472.807617	23479.640625
4471.739258	23468.447266
4470.669922	23436.375000
4469.601563	23562.060547
4468.532227	23465.039063
4467.462891	23435.300781
4466.392578	23224.726563
4465.323242	23412.943359
4464.252930	24018.275391
4463.182617	23511.095703
4462.112305	23509.173828
4461.041992	23576.744141
4459.970703	23697.558594
4458.900391	23385.308594
4457.829102	23577.882813
4456.757813	23874.550781
4455.685547	23736.011719
4454.614258	23914.531250
4453.541992	23401.244141
4452.469727	23787.937500
4451.397461	23482.996094
4450.325195	23700.738281
4449.251953	23832.861328
4448.179688	23971.869141
4447.106445	23697.154297
4446.033203	24027.916016
4444.959961	23690.912109
4443.885742	23815.984375
4442.811523	23677.744141
4441.738281	23969.013672
4440.663086	23936.984375
4439.588867	23960.359375
4438.514648	23759.882813
4437.439453	23993.240234
4436.364258	23896.634766
4435.289063	24118.349609
4434.213867	24197.011719
4433.137695	24211.087891
4432.062500	24033.826172
4430.986328	23960.343750
4429.910156	24218.710938
4428.833984	24062.277344
4427.756836	24382.726563
4426.680664	24221.712891
4425.603516	24484.447266
4424.526367	23851.505859
4423.448242	24342.093750
4422.371094	24323.888672
4421.292969	24176.830078
4420.214844	24220.773438
4419.136719	24322.205078
4418.058594	24200.521484
4416.980469	24048.988281
4415.901367	24338.906250
4414.822266	24152.923828
4413.743164	24196.818359
4412.664063	24594.541016
4411.583984	24256.990234
4410.504883	24123.980469
4409.424805	24482.457031
4408.344727	24613.496094
4407.264648	24381.779297
4406.183594	24466.882813
4405.103516	24161.841797
4404.022461	24045.046875
4402.941406	24198.982422
4401.859375	24318.457031
4400.778320	24348.455078
4399.696289	24284.439453
4398.614258	24137.923828
4397.532227	24275.654297
4396.450195	24525.615234
4395.368164	24234.796875
4394.285156	24365.558594
4393.202148	24700.103516
4392.119141	24081.962891
4391.036133	24340.886719
4389.952148	24567.667969
4388.869141	24393.867188
4387.785156	24650.302734
4386.701172	24382.750000
4385.617188	24453.818359
4384.532227	24572.884766
4383.448242	24481.548828
4382.363281	24607.421875
4381.278320	24394.970703
4380.192383	24429.402344
4379.107422	24676.312500
4378.021484	24322.326172
4376.935547	24534.902344
4375.849609	24213.037109
4374.763672	24389.023438
4373.677734	24475.917969
4372.590820	24724.826172
4371.503906	24537.791016
4370.416992	24220.775391
4369.330078	24556.273438
4368.242188	24595.158203
4367.154297	24337.587891
4366.067383	24485.931641
4364.979492	24511.126953
4363.890625	24379.056641
4362.802734	24511.357422
4361.713867	24716.511719
4360.625000	24848.701172
4359.536133	24618.732422
4358.447266	24634.763672
4357.357422	24730.466797
4356.268555	24725.982422
4355.178711	24503.027344
4354.088867	24678.335938
4352.998047	24582.865234
4351.908203	24300.916016
4350.817383	24355.634766
4349.726563	24769.578125
4348.635742	24469.558594
4347.544922	24690.134766
4346.453125	24624.298828
4345.361328	24194.960938
4344.269531	24653.982422
4343.177734	24386.048828
4342.085938	24604.164063
4340.993164	24558.832031
4339.901367	24794.994141
4338.808594	24536.302734
4337.715820	24758.765625
4336.622070	24379.929688
4335.529297	24863.195313
4334.435547	24718.072266
4333.341797	24749.865234
4332.248047	24520.929688
4331.154297	24575.412109
4330.059570	24620.808594
4328.964844	24509.841797
4327.870117	24892.785156
4326.775391	24609.664063
4325.680664	24424.025391
4324.584961	24621.105469
4323.489258	24435.529297
4322.393555	24605.373047
4321.297852	24537.541016
4320.202148	24553.445313
4319.105469	24668.880859
4318.008789	24438.224609
4316.912109	24671.224609
4315.815430	24985.533203
4314.718750	24630.613281
4313.621094	24664.560547
4312.523438	24610.365234
4311.425781	24438.705078
4310.328125	24574.314453
4309.229492	24432.082031
4308.131836	24542.800781
4307.033203	24603.812500
4305.934570	24585.794922
4304.835938	24518.134766
4303.736328	24443.728516
4302.636719	24446.052734
4301.538086	24236.349609
4300.437500	24703.275391
4299.337891	25120.425781
4298.238281	24608.626953
4297.137695	24619.927734
4296.037109	24538.830078
4294.936523	24381.154297
4293.835938	24586.222656
4292.734375	24586.253906
4291.632813	24696.628906
4290.532227	24496.255859
4289.429688	24633.617188
4288.328125	24640.388672
4287.225586	24269.113281
4286.124023	24424.435547
4285.021484	24231.037109
4283.918945	24359.322266
4282.815430	24523.535156
4281.712891	24474.107422
4280.609375	24496.626953
4279.505859	24755.113281
4278.402344	24674.208984
4277.297852	24557.386719
4276.194336	24377.714844
4275.089844	24773.023438
4273.985352	24622.564453
4272.880859	24492.363281
4271.775391	24707.867188
4270.670898	24584.429688
4269.565430	24519.371094
4268.459961	24750.453125
4267.354492	24609.128906
4266.248047	24281.726563
4265.141602	24528.416016
4264.036133	24494.806641
4262.929688	24398.451172
4261.822266	24593.443359
4260.715820	24553.113281
4259.608398	24380.636719
4258.500977	24503.853516
4257.393555	24559.845703
4256.286133	24409.847656
4255.177734	24539.703125
4254.069336	24383.044922
4252.961914	24280.146484
4251.852539	24792.511719
4250.744141	24443.527344
4249.635742	24465.908203
4248.526367	24566.537109
4247.416992	24459.222656
4246.307617	24582.166016
4245.197266	24137.439453
4244.087891	24296.142578
4242.977539	24448.085938
4241.867188	24175.605469
4240.756836	24387.808594
4239.645508	24180.183594
4238.535156	24309.708984
4237.423828	24213.767578
4236.312500	24097.775391
4235.200195	24220.550781
4234.088867	24227.285156
4232.976563	24077.896484
4231.864258	24213.984375
4230.751953	24434.738281
4229.639648	24283.162109
4228.527344	24158.384766
4227.414063	23904.414063
4226.300781	24209.716797
4225.187500	24216.433594
4224.074219	24138.521484
4222.959961	24198.687500
4221.845703	24314.482422
4220.731445	24147.560547
4219.617188	24011.853516
4218.502930	24249.992188
4217.387695	23874.060547
4216.272461	24063.201172
4215.157227	24238.931641
4214.041992	24190.037109
4212.926758	23761.035156
4211.810547	23890.046875
4210.694336	23967.902344
4209.578125	24190.138672
4208.461914	23619.283203
4207.345703	23874.814453
4206.228516	23848.246094
4205.111328	23737.322266
4203.994141	24010.447266
4202.876953	23855.146484
4201.758789	23804.191406
4200.640625	23948.478516
4199.523438	23950.753906
4198.404297	23953.029297
4197.286133	23738.009766
4196.167969	24012.994141
4195.048828	23676.134766
4193.929688	23758.232422
4192.810547	23649.751953
4191.690430	23344.156250
4190.571289	23585.732422
4189.451172	23583.632813
4188.331055	23709.947266
4187.210938	23577.220703
4186.089844	23201.087891
4184.968750	23535.404297
4183.848633	23639.505859
4182.727539	23453.796875
4181.605469	23429.601563
4180.484375	23354.556641
4179.362305	23619.998047
4178.240234	23606.833984
4177.118164	23489.804688
4175.996094	23260.130859
4174.873047	23410.513672
4173.750000	23569.677734
4172.626953	23271.652344
4171.503906	23293.886719
4170.380859	23406.623047
4169.256836	23344.951172
4168.133789	23267.855469
4167.009766	23223.880859
4165.884766	23045.359375
4164.760742	23360.939453
4163.635742	23178.046875
4162.510742	23173.800781
4161.385742	23046.115234
4160.260742	22971.369141
4159.135742	22958.347656
4158.009766	22938.718750
4156.883789	22800.152344
4155.757813	23113.105469
4154.630859	22963.544922
4153.504883	22840.457031
4152.377930	22853.880859
4151.250977	23093.968750
4150.124023	22948.917969
4148.997070	22632.330078
4147.869141	22733.755859
4146.741211	22881.324219
4145.613281	22987.064453
4144.485352	22743.238281
4143.356445	22648.957031
4142.228516	22838.181641
4141.099609	22605.500000
4139.970703	22487.128906
4138.841797	22665.292969
4137.711914	22667.724609
4136.582031	22659.175781
4135.452148	22455.271484
4134.322266	22552.105469
4133.192383	22585.271484
4132.061523	22462.662109
4130.931641	22708.591797
4129.800781	22581.615234
4128.668945	22327.513672
4127.538086	22246.689453
4126.406250	22437.679688
4125.274414	22602.300781
4124.142578	22333.039063
4123.010742	22420.947266
4121.878906	22195.619141
4120.746094	22117.091797
4119.613281	22290.375000
4118.480469	22154.941406
4117.347656	21964.843750
4116.213867	22011.138672
4115.080078	22039.916016
4113.946289	22134.300781
4112.812500	22292.074219
4111.678711	22108.679688
4110.543945	22148.343750
4109.409180	22214.220703
4108.274414	22129.281250
4107.139648	22112.107422
4106.003906	22040.322266
4104.869141	21986.037109
4103.733398	22027.857422
4102.597656	21921.191406
4101.460938	22041.593750
4100.325195	21980.796875
4099.188477	21699.621094
4098.051758	21937.810547
4096.915039	21992.675781
4095.778320	21912.298828
4094.640625	21903.910156
4093.502930	22056.857422
4092.365234	21802.128906
4091.227539	21608.515625
4090.088867	21881.271484
4088.951172	21766.140625
4087.812500	21736.001953
4086.673828	21588.271484
4085.534180	21782.443359
4084.395508	21454.068359
4083.255859	21554.597656
4082.116211	21692.083984
4080.976563	21442.232422
4079.836914	21677.578125
4078.696289	21549.617188
4077.555664	21523.908203
4076.415039	21515.599609
4075.274414	21550.767578
4074.132813	21601.136719
4072.992188	21325.541016
4071.850586	21386.792969
4070.708984	21224.289063
4069.566406	21381.093750
4068.424805	21329.388672
4067.282227	21180.007813
4066.139648	21364.949219
4064.997070	21404.417969
4063.853516	21324.537109
4062.710938	21322.779297
4061.567383	21316.683594
4060.423828	21388.660156
4059.280273	21202.593750
4058.135742	21177.011719
4056.991211	20843.669922
4055.847656	20911.341797
4054.702148	20968.154297
4053.557617	20951.294922
4052.413086	20808.826172
4051.267578	20815.818359
4050.122070	21039.306641
4048.976563	20896.896484
4047.830078	21048.869141
4046.683594	20703.111328
4045.538086	21021.640625
4044.390625	20965.855469
4043.244141	20806.285156
4042.097656	20951.640625
4040.950195	20995.337891
4039.802734	20978.500000
4038.655273	20782.304688
4037.506836	20843.291016
4036.359375	20621.267578
4035.210938	20742.734375
4034.062500	20656.851563
4032.914063	20566.683594
4031.764648	20858.619141
4030.616211	20543.990234
4029.466797	20732.246094
4028.317383	20586.033203
4027.166992	20558.509766
4026.017578	20459.826172
4024.867188	20852.794922
4023.716797	20335.863281
4022.566406	20564.896484
4021.415039	20548.171875
4020.264648	20313.833984
4019.113281	20435.031250
4017.961914	20377.414063
4016.810547	20270.289063
4015.658203	20430.177734
4014.505859	20482.376953
4013.353516	20254.761719
4012.201172	20231.656250
4011.048828	20120.349609
4009.895508	20419.931641
4008.742188	20201.097656
4007.588867	20401.640625
4006.435547	20187.187500
4005.282227	20144.769531
4004.127930	20093.769531
4002.973633	20012.707031
4001.819336	19884.410156
4000.665039	19887.181641
3999.509766	19870.623047
3998.354492	19761.744141
3997.199219	20118.736328
3996.043945	19818.832031
3994.888672	19692.853516
3993.732422	19740.707031
3992.576172	19816.427734
3991.419922	19896.408203
3990.263672	19620.404297
3989.106445	19749.701172
3987.949219	19454.533203
3986.792969	19532.375000
3985.634766	19674.468750
3984.477539	19715.820313
3983.319336	19690.755859
3982.161133	19415.140625
3981.002930	19439.386719
3979.844727	19519.279297
3978.686523	19560.617188
3977.527344	19460.703125
3976.368164	19309.474609
3975.208984	19218.197266
3974.048828	19174.005859
3972.889648	19433.478516
3971.729492	19387.123047
3970.569336	19253.144531
3969.409180	19046.550781
3968.248047	19213.968750
3967.087891	19315.097656
3965.926758	19277.345703
3964.764648	19181.949219
3963.603516	19020.392578
3962.442383	19097.996094
3961.280273	19120.074219
3960.118164	19167.750000
3958.955078	18982.843750
3957.792969	18975.064453
3956.629883	19029.136719
3955.466797	19108.779297
3954.303711	18975.185547
3953.140625	18666.845703
3951.976563	18812.578125
3950.813477	18962.515625
3949.649414	18688.433594
3948.484375	18787.216797
3947.320313	18862.533203
3946.155273	18807.937500
3944.990234	18715.039063
3943.825195	19022.332031
3942.660156	18667.671875
3941.494141	18621.658203
3940.329102	18620.335938
3939.163086	18882.750000
3937.996094	18764.417969
3936.830078	18493.048828
3935.663086	18532.134766
3934.496094	18471.316406
3933.329102	18542.265625
3932.162109	18209.521484
3930.995117	18155.166016
3929.827148	18338.691406
3928.659180	18352.277344
3927.491211	18334.013672
3926.322266	18218.117188
3925.153320	18165.929688
3923.985352	18421.417969
3922.816406	18250.412109
3921.646484	17969.173828
3920.477539	18239.400391
3919.307617	17979.470703
3918.137695	18141.480469
3916.967773	18150.832031
3915.796875	18372.082031
3914.626953	17997.910156
3913.456055	18147.085938
3912.285156	17986.996094
3911.113281	18023.888672
3909.942383	17810.953125
3908.770508	17801.298828
3907.598633	18115.437500
3906.426758	17822.197266
3905.253906	17592.529297
3904.082031	17800.773438
3902.909180	18222.527344
3901.736328	17895.652344
3900.562500	17788.746094
3899.389648	17836.167969
3898.215820	17752.556641
3897.041992	17540.095703
3895.868164	17669.917969
3894.693359	17715.210938
3893.519531	17644.349609
3892.344727	17636.849609
3891.169922	17658.902344
3889.994141	17505.783203
3888.819336	17333.728516
3887.643555	17404.343750
3886.467773	17474.933594
3885.291992	17528.625000
3884.115234	17101.570313
3882.939453	17610.648438
3881.762695	17615.804688
3880.585938	17298.546875
3879.408203	17291.119141
3878.231445	17129.917969
3877.053711	17227.824219
3875.875977	17306.744141
3874.698242	17118.259766
3873.519531	17272.945313
3872.341797	16979.308594
3871.163086	17045.585938
3869.984375	16943.541016
3868.804688	17112.863281
3867.625977	16901.488281
3866.446289	16908.855469
3865.266602	17256.773438
3864.085938	17034.978516
3862.906250	17002.388672
3861.725586	17112.679688
3860.544922	16897.333984
3859.364258	17148.316406
3858.183594	17170.322266
3857.001953	17207.015625
3855.820313	16775.607422
3854.638672	16707.425781
3853.457031	16943.519531
3852.274414	16862.742188
3851.092773	16805.068359
3849.910156	16749.511719
3848.726563	16740.103516
3847.543945	16632.171875
3846.360352	16800.939453
3845.177734	16605.021484
3843.993164	16750.683594
3842.809570	16634.447266
3841.625977	16786.332031
3840.441406	16624.062500
3839.256836	16463.947266
3838.072266	16410.642578
3836.886719	16696.392578
3835.701172	16661.896484
3834.516602	16606.490234
3833.330078	16726.802734
3832.144531	16535.472656
3830.958008	16536.572266
3829.772461	16236.644531
3828.585938	16283.780273
3827.398438	16381.049805
3826.211914	16229.656250
3825.024414	16475.210938
3823.836914	16348.916016
3822.649414	16341.691406
3821.461914	16192.502930
3820.273438	16289.675781
3819.084961	16478.638672
3817.896484	16152.146484
3816.708008	16055.255859
3815.518555	16298.384766
3814.329102	16193.160156
3813.139648	16390.300781
3811.950195	16080.802734
3810.760742	16315.406250
3809.570313	15893.507813
3808.379883	16194.727539
3807.189453	16204.204102
3805.999023	15851.290039
3804.807617	16023.244141
3803.616211	15878.683594
3802.424805	15934.002930
3801.233398	15506.478516
3800.041992	15751.191406
3798.849609	15818.983398
3797.657227	15664.192383
3796.464844	15594.721680
3795.271484	15805.965820
3794.079102	15669.970703
3792.885742	15677.436523
3791.692383	15443.848633
3790.498047	15609.252930
3789.304688	15647.881836
3788.110352	15566.038086
3786.916016	15710.559570
3785.721680	15668.179688
3784.526367	15385.034180
3783.332031	15517.053711
3782.136719	15837.841797
3780.941406	15577.640625
3779.745117	15479.319336
3778.549805	15258.681641
3777.353516	15361.572266
3776.157227	15667.574219
3774.960938	15552.725586
3773.763672	15274.215820
3772.566406	15348.017578
3771.369141	15411.433594
3770.171875	15402.338867
3768.974609	15355.975586
3767.776367	15245.450195
3766.578125	15184.642578
3765.379883	15295.625000
3764.181641	15131.374023
3762.982422	15281.628906
3761.783203	14910.607422
3760.583984	15009.147461
3759.384766	15132.460938
3758.184570	14980.792969
3756.985352	15002.791992
3755.785156	15227.288086
3754.584961	14986.847656
3753.383789	14837.383789
3752.183594	15049.391602
3750.982422	14994.954102
3749.781250	14946.729492
3748.579102	14861.368164
3747.377930	14908.115234
3746.175781	14773.272461
3744.973633	14720.996094
3743.771484	14800.742188
3742.568359	14690.738281
3741.365234	14634.381836
3740.162109	14676.992188
3738.958984	14678.365234
3737.755859	14696.221680
3736.551758	14722.312500
3735.347656	14779.290039
3734.143555	14597.349609
3732.939453	14775.812500
3731.734375	14674.227539
3730.529297	14613.846680
3729.324219	14652.266602
3728.119141	14534.299805
3726.914063	14609.747070
3725.708008	14555.590820
3724.501953	14507.623047
3723.295898	14424.720703
3722.088867	14526.851563
3720.882813	14665.937500
3719.675781	14365.239258
3718.468750	14424.179688
3717.260742	14454.339844
3716.053711	14408.502930
3714.845703	14498.198242
3713.637695	14359.988281
3712.429688	14371.663086
3711.220703	14157.598633
3710.011719	14329.341797
3708.802734	14244.599609
3707.593750	14399.851563
3706.384766	14415.605469
3705.174805	14191.479492
3703.964844	14100.674805
3702.754883	14292.725586
3701.544922	14124.070313
3700.333984	14168.539063
3699.123047	14051.176758
3697.912109	14159.125977
3696.701172	14015.190430
3695.489258	14069.878906
3694.278320	14104.079102
3693.066406	14101.431641
3691.853516	13873.727539
3690.641602	13809.754883
3689.428711	14091.445313
3688.215820	13720.731445
3687.002930	13752.910156
3685.790039	14001.746094
3684.576172	13970.504883
3683.362305	14002.616211
3682.148438	13671.079102
3680.934570	13950.378906
3679.719727	13727.208008
3678.504883	13832.840820
3677.290039	13789.415039
3676.075195	13823.561523
3674.860352	13849.532227
3673.644531	13700.034180
3672.428711	13613.827148
3671.212891	13851.922852
3669.996094	13877.866211
3668.780273	13581.687500
3667.563477	13931.759766
3666.346680	13717.197266
3665.128906	13842.983398
3663.912109	13758.894531
3662.694336	13434.499023
3661.476563	13690.592773
3660.257813	13470.166992
3659.040039	13738.370117
3657.821289	13613.671875
3656.602539	13436.114258
3655.383789	13771.308594
3654.164063	13569.377930
3652.945313	13422.432617
3651.725586	13460.573242
3650.504883	13474.304688
3649.285156	13290.872070
3648.064453	13544.423828
3646.844727	13448.413086
3645.623047	13476.353516
3644.402344	13380.389648
3643.180664	13274.308594
3641.959961	13259.627930
3640.738281	13711.825195
3639.515625	13333.787109
3638.293945	13341.421875
3637.071289	13320.651367
3635.848633	13350.596680
3634.625977	13364.306641
3633.402344	13442.892578
3632.178711	13280.211914
3630.955078	13109.484375
3629.731445	13340.055664
3628.507813	13258.527344
3627.283203	13177.028320
3626.058594	13121.887695
3624.833984	13226.736328
3623.609375	13289.029297
3622.383789	12999.095703
3621.158203	13008.788086
3619.932617	13239.026367
3618.707031	12874.413086
3617.480469	13138.973633
3616.254883	12875.626953
3615.028320	12952.052734
3613.800781	13115.373047
3612.574219	12949.190430
3611.346680	12999.288086
3610.119141	12930.166016
3608.891602	13196.381836
3607.663086	12941.446289
3606.435547	12926.890625
3605.207031	13073.844727
3603.978516	12784.761719
3602.749023	12768.223633
3601.520508	12953.458984
3600.291016	12942.946289
3599.061523	12849.743164
3597.831055	12907.814453
3596.601563	12800.539063
3595.371094	12777.965820
3594.140625	12898.493164
3592.909180	12859.789063
3591.678711	12706.264648
3590.447266	12758.250977
3589.215820	12586.677734
3587.984375	12948.743164
3586.751953	12634.267578
3585.520508	12794.913086
3584.288086	12551.015625
3583.054688	12611.016602
3581.822266	12618.693359
3580.588867	12720.892578
3579.355469	12507.353516
3578.122070	12758.307617
3576.888672	12520.719727
3575.654297	12546.490234
3574.419922	12357.254883
3573.185547	12692.419922
3571.951172	12493.184570
3570.715820	12653.485352
3569.480469	12596.884766
3568.245117	12676.807617
3567.009766	12421.526367
3565.773438	12449.278320
3564.538086	12232.253906
3563.301758	12428.525391
3562.064453	12398.098633
3560.828125	12447.888672
3559.590820	12447.540039
3558.353516	12379.041992
3557.116211	12300.549805
3555.877930	12682.918945
3554.640625	12436.125000
3553.402344	12387.707031
3552.164063	12323.287109
3550.924805	12266.899414
3549.686523	12386.684570
3548.447266	12236.242188
3547.207031	12217.918945
3545.967773	12273.625000
3544.727539	12109.285156
3543.488281	12374.971680
3542.248047	12296.651367
3541.006836	12244.347656
3539.766602	12148.090820
3538.525391	12297.664063
3537.284180	12143.493164
3536.041992	12159.172852
3534.800781	12240.752930
3533.558594	11871.022461
3532.316406	12118.329102
3531.074219	11966.330078
3529.831055	12097.774414
3528.587891	11877.997070
3527.344727	11843.828125
3526.101563	12210.575195
3524.858398	11958.992188
3523.614258	11986.633789
3522.370117	11968.416016
3521.125977	11828.629883
3519.880859	12143.220703
3518.636719	12011.421875
3517.391602	11973.291992
3516.146484	11976.998047
3514.900391	11914.994141
3513.655273	11960.514648
3512.409180	11886.593750
3511.163086	11912.201172
3509.916016	11915.912109
3508.669922	11702.791992
3507.422852	11951.171875
3506.175781	12100.032227
3504.927734	11851.210938
3503.680664	11813.184570
3502.432617	11854.666016
3501.184570	11751.082031
3499.935547	11675.348633
3498.687500	11853.881836
3497.438477	11905.251953
3496.189453	11740.183594
3494.940430	11785.598633
3493.690430	11902.447266
3492.441406	11761.284180
3491.190430	11913.802734
3489.940430	11808.394531
3488.690430	11736.741211
3487.439453	11677.010742
3486.188477	11700.567383
3484.937500	11670.596680
3483.685547	11751.614258
3482.434570	11816.749023
3481.182617	11665.933594
3479.929688	11556.766602
3478.677734	11647.642578
3477.424805	11698.886719
3476.171875	11621.445313
3474.918945	11474.764648
3473.666016	11753.563477
3472.412109	11616.803711
3471.158203	11493.941406
3469.904297	11416.610352
3468.650391	11544.937500
3467.395508	11434.018555
3466.140625	11645.303711
3464.885742	11530.454102
3463.630859	11563.826172
3462.375000	11451.009766
3461.119141	11316.511719
3459.863281	11551.310547
3458.607422	11551.089844
3457.350586	11357.432617
3456.093750	11558.539063
3454.836914	11477.418945
3453.580078	11400.274414
3452.322266	11390.217773
3451.064453	11283.538086
3449.806641	11320.824219
3448.548828	11474.396484
3447.291016	11304.693359
3446.032227	11479.884766
3444.773438	11371.317383
3443.513672	11349.457031
3442.254883	11321.696289
3440.995117	11227.001953
3439.735352	11309.514648
3438.475586	11169.588867
3437.214844	11368.182617
3435.955078	11108.281250
3434.694336	11259.600586
3433.432617	11225.990234
3432.171875	11160.930664
3430.910156	11188.295898
3429.648438	11152.750977
3428.386719	11219.411133
3427.124023	11073.841797
3425.862305	11323.184570
3424.599609	11267.998047
3423.335938	11148.029297
3422.073242	10975.095703
3420.809570	11165.376953
3419.545898	11118.110352
3418.282227	11072.824219
3417.018555	10988.317383
3415.753906	11009.761719
3414.489258	11117.486328
3413.224609	11056.545898
3411.958984	10944.660156
3410.694336	10995.494141
3409.428711	10946.368164
3408.163086	10899.219727
3406.896484	10922.607422
3405.629883	10957.737305
3404.364258	10928.235352
3403.096680	10885.039063
3401.830078	11156.996094
3400.562500	10959.168945
3399.294922	10642.063477
3398.027344	11044.978516
3396.759766	10874.666992
3395.491211	10976.234375
3394.222656	11017.154297
3392.954102	10843.034180
3391.685547	10717.839844
3390.416016	10952.231445
3389.146484	10991.167969
3387.876953	10713.661133
3386.607422	10813.167969
3385.336914	10701.763672
3384.066406	10863.702148
3382.795898	10855.773438
3381.525391	10920.049805
3380.253906	10677.988281
3378.982422	10722.766602
3377.710938	10753.875000
3376.439453	10825.918945
3375.166992	10870.640625
3373.894531	10669.750000
3372.622070	10478.679688
3371.349609	10648.140625
3370.076172	10768.834961
3368.802734	10550.585938
3367.529297	10560.254883
3366.255859	10832.755859
3364.981445	10490.038086
3363.707031	10758.554688
3362.432617	10550.243164
3361.158203	10563.791016
3359.882813	10744.610352
3358.607422	10728.944336
3357.332031	10392.468750
3356.056641	10596.542969
3354.780273	10573.137695
3353.503906	10576.947266
3352.227539	10613.782227
3350.951172	10602.041016
3349.673828	10479.604492
3348.396484	10458.183594
3347.119141	10510.541992
3345.841797	10529.883789
3344.563477	10459.948242
3343.285156	10430.785156
3342.006836	10646.056641
3340.728516	10519.892578
3339.449219	10477.158203
3338.169922	10479.032227
3336.890625	10422.751953
3335.611328	10385.874023
3334.331055	10443.954102
3333.050781	10430.333008
3331.770508	10459.327148
3330.490234	10519.295898
3329.208984	10404.984375
3327.927734	10656.583008
3326.646484	10362.293945
3325.365234	10323.543945
3324.083008	10484.082031
3322.800781	10375.687500
3321.518555	10493.606445
3320.236328	10478.062500
3318.953125	10265.335938
3317.669922	10363.877930
3316.386719	10441.125000
3315.103516	10313.539063
3313.819336	10398.491211
3312.535156	10166.667969
3311.250977	10251.615234
3309.966797	10363.558594
3308.681641	10309.456055
3307.396484	10253.444336
3306.111328	10340.237305
3304.826172	10371.051758
3303.540039	10334.346680
3302.253906	10241.731445
3300.967773	10295.681641
3299.681641	10233.950195
3298.394531	10135.625000
3297.107422	10349.497070
3295.820313	10120.179688
3294.532227	10172.172852
3293.245117	10337.768555
3291.957031	10199.080078
3290.668945	10137.446289
3289.379883	10195.168945
3288.091797	10125.861328
3286.802734	10200.877930
3285.512695	10058.499023
3284.223633	10221.967773
3282.933594	10096.943359
3281.643555	10123.843750
3280.353516	10081.537109
3279.063477	10012.341797
3277.772461	10256.357422
3276.481445	10294.730469
3275.190430	10300.437500
3273.898438	10150.599609
3272.607422	10154.411133
3271.315430	10142.864258
3270.022461	10048.796875
3268.730469	10117.863281
3267.437500	10056.449219
3266.144531	10148.503906
3264.851563	9943.279297
3263.557617	10073.666016
3262.264648	10144.576172
3260.970703	10021.882813
3259.675781	10000.794922
3258.381836	10209.619141
3257.086914	10025.686523
3255.791992	10079.298828
3254.497070	9998.857422
3253.201172	10058.196289
3251.905273	9753.848633
3250.609375	9918.462891
3249.313477	9931.863281
3248.016602	9876.392578
3246.720703	9983.509766
3245.423828	9943.346680
3244.125977	9973.936523
3242.829102	9893.650391
3241.531250	9893.659180
3240.233398	9973.917969
3238.934570	9943.344727
3237.636719	10061.761719
3236.337891	9895.599609
3235.039063	9956.702148
3233.739258	9895.612305
3232.440430	9853.629883
3231.140625	9752.511719
3229.840820	9788.791016
3228.540039	9876.555664
3227.240234	9767.861328
3225.939453	10042.450195
3224.638672	9901.357422
3223.336914	9878.486328
3222.035156	9720.328125
3220.734375	9889.926758
3219.431641	9729.920898
3218.129883	9830.889648
3216.827148	9716.655273
3215.524414	9678.613281
3214.221680	9813.792969
3212.918945	9672.984375
3211.615234	9771.961914
3210.311523	9747.252930
3209.007813	9633.163086
3207.703125	9642.716797
3206.398438	9762.535156
3205.093750	9779.663086
3203.789063	9608.639648
3202.483398	9564.987305
3201.178711	9658.129883
3199.873047	9743.638672
3198.566406	9582.247070
3197.260742	9700.013672
3195.954102	9660.178711
3194.647461	9536.853516
3193.340820	9572.965820
3192.033203	9595.783203
3190.725586	9593.933594
3189.417969	9586.394531
3188.110352	9601.611328
3186.801758	9554.263672
3185.493164	9453.864258
3184.184570	9533.524414
3182.875000	9579.050781
3181.566406	9700.328125
3180.256836	9617.021484
3178.947266	9605.699219
3177.636719	9306.625000
3176.327148	9371.076172
3175.016602	9333.313477
3173.705078	9462.062500
3172.394531	9320.253906
3171.083008	9448.955078
3169.771484	9439.568359
3168.459961	9360.233398
3167.147461	9460.498047
3165.835938	9458.671875
3164.523438	9343.477539
3163.209961	9368.121094
3161.897461	9294.540039
3160.583984	9464.588867
3159.270508	9379.688477
3157.957031	9255.179688
3156.642578	9266.603516
3155.328125	9153.485352
3154.013672	9234.726563
3152.699219	9383.838867
3151.383789	9074.634766
3150.068359	9289.710938
3148.752930	9125.797852
3147.437500	9218.271484
3146.121094	9203.299805
3144.804688	9131.812500
3143.488281	9203.510742
3142.170898	9194.199219
3140.854492	9331.757813
3139.537109	9134.168945
3138.218750	8991.238281
3136.901367	9100.528320
3135.583008	9260.575195
3134.264648	9305.812500
3132.946289	9140.388672
3131.626953	9087.851563
3130.308594	9037.213867
3128.988281	9063.661133
3127.668945	9043.115234
3126.349609	9016.940430
3125.029297	9101.610352
3123.708984	8883.857422
3122.387695	9053.020508
3121.067383	8998.700195
3119.746094	8925.629883
3118.424805	8985.834961
3117.102539	8952.197266
3115.780273	8995.489258
3114.458984	8806.183594
3113.135742	9089.523438
3111.813477	9061.514648
3110.490234	9071.007813
3109.166992	9087.994141
3107.843750	8979.425781
3106.519531	8973.940430
3105.196289	8869.181641
3103.872070	8953.610352
3102.546875	8974.345703
3101.222656	8864.030273
3099.897461	8779.959961
3098.572266	8912.993164
3097.246094	8888.815430
3095.920898	8799.176758
3094.594727	8833.005859
3093.268555	8846.252930
3091.941406	8855.755859
3090.615234	8874.600586
3089.288086	8818.686523
3087.960938	8902.923828
3086.632813	8889.990234
3085.304688	8933.091797
3083.976563	8852.932617
3082.648438	8868.018555
3081.320313	8855.100586
3079.991211	8786.199219
3078.662109	8646.421875
3077.333008	8933.898438
3076.002930	8758.707031
3074.672852	8900.596680
3073.342773	8714.292969
3072.012695	8779.708984
3070.681641	8764.959961
3069.350586	8655.186523
3068.019531	8694.492188
3066.688477	8730.057617
3065.356445	8722.777344
3064.024414	8791.836914
3062.692383	8713.807617
3061.359375	8708.394531
3060.027344	8721.590820
3058.694336	8690.130859
3057.360352	8723.785156
3056.027344	8616.087891
3054.693359	8642.305664
3053.359375	8560.690430
3052.025391	8644.525391
3050.690430	8600.106445
3049.355469	8525.977539
3048.020508	8656.208984
3046.685547	8771.530273
3045.349609	8535.866211
3044.013672	8730.994141
3042.677734	8695.887695
3041.340820	8612.544922
3040.004883	8482.849609
3038.667969	8592.503906
3037.330078	8627.927734
3035.993164	8689.296875
3034.655273	8631.990234
3033.317383	8554.315430
3031.979492	8541.533203
3030.640625	8525.049805
3029.301758	8645.658203
3027.962891	8618.047852
3026.624023	8695.999023
3025.284180	8411.039063
3023.944336	8501.957031
3022.604492	8589.137695
3021.263672	8489.399414
3019.923828	8582.097656
3018.583008	8565.630859
3017.241211	8453.008789
3015.900391	8530.867188
3014.558594	8497.782227
3013.216797	8407.416016
3011.875000	8331.867188
3010.532227	8356.110352
3009.189453	8374.802734
3007.846680	8365.785156
3006.503906	8323.537109
3005.160156	8502.828125
3003.816406	8357.209961
3002.472656	8444.158203
3001.128906	8359.491211
2999.784180	8298.836914
2998.439453	8214.230469
2997.094727	8249.507813
2995.749023	8375.104492
2994.403320	8332.923828
2993.057617	8266.802734
2991.711914	8344.417969
2990.365234	8276.477539
2989.018555	8278.548828
2987.671875	8335.859375
2986.325195	8116.996582
2984.977539	8111.733398
2983.629883	8251.855469
2982.282227	8184.009766
2980.933594	8149.302246
2979.585938	8237.834961
2978.237305	7958.562500
2976.887695	8109.606445
2975.539063	8214.637695
2974.189453	8187.307129
2972.839844	8229.808594
2971.489258	8143.699219
2970.139648	8131.090820
2968.789063	7899.961914
2967.438477	8162.803711
2966.086914	8122.663574
2964.735352	8029.315430
2963.383789	8216.745117
2962.032227	8042.693848
2960.680664	8086.979980
2959.328125	8092.737305
2957.975586	8087.491211
2956.622070	7942.929688
2955.269531	7994.529785
2953.916016	8002.131348
2952.562500	7932.783691
2951.208008	8009.998047
2949.854492	7828.963379
2948.500000	7972.082520
2947.144531	7972.356445
2945.790039	7974.460449
2944.434570	7756.974609
2943.079102	7936.584961
2941.723633	7977.106445
2940.367188	7911.539551
2939.010742	7981.304688
2937.654297	7870.058594
2936.297852	7841.104492
2934.940430	7859.674316
2933.583008	7825.251953
2932.225586	7840.163086
2930.867188	7935.426758
2929.508789	7789.624023
2928.150391	7948.756348
2926.791992	7688.015137
2925.432617	7712.061523
2924.074219	7721.500977
2922.713867	7889.641602
2921.354492	7744.016113
2919.994141	7744.325684
2918.633789	7750.104004
2917.273438	7704.841797
2915.913086	7675.999023
2914.551758	7756.490234
2913.190430	7609.237305
2911.829102	7649.640137
2910.466797	7653.606445
2909.104492	7601.131836
2907.742188	7739.805664
2906.379883	7809.268066
2905.016602	7583.934082
2903.653320	7507.862793
2902.290039	7688.278320
2900.925781	7786.791016
2899.562500	7687.087402
2898.197266	7618.324707
2896.833008	7482.344238
2895.468750	7713.464355
2894.103516	7481.231445
2892.738281	7599.646484
2891.372070	7614.502441
2890.005859	7562.173340
2888.640625	7586.106445
2887.273438	7660.848145
2885.907227	7543.214355
2884.540039	7554.436523
2883.172852	7527.562500
2881.805664	7373.752441
2880.437500	7539.118652
2879.069336	7557.582031
2877.701172	7421.979980
2876.333008	7654.285645
2874.963867	7496.976074
2873.594727	7625.926758
2872.225586	7570.101074
2870.855469	7470.840820
2869.485352	7451.272949
2868.115234	7232.616699
2866.745117	7513.497559
2865.374023	7351.000977
2864.002930	7438.195313
2862.631836	7378.863281
2861.260742	7399.114746
2859.888672	7489.863281
2858.516602	7437.784668
2857.144531	7401.990234
2855.771484	7384.277344
2854.398438	7541.793457
2853.025391	7287.464844
2851.652344	7300.480469
2850.278320	7333.349609
2848.904297	7387.865723
2847.530273	7332.276367
2846.156250	7305.577148
2844.781250	7329.398438
2843.406250	7439.781738
2842.030273	7443.730957
2840.655273	7267.390625
2839.279297	7348.879883
2837.903320	7320.404297
2836.526367	7167.614258
2835.150391	7247.272461
2833.773438	7172.003906
2832.395508	7222.816895
2831.018555	7279.011230
2829.640625	7264.980957
2828.262695	7207.763184
2826.884766	7281.919434
2825.505859	7262.498535
2824.126953	7144.160645
2822.748047	6916.173828
2821.368164	7078.425781
2819.989258	7208.257324
2818.609375	7145.734863
2817.228516	7090.424805
2815.848633	7024.356445
2814.467773	7128.948730
2813.086914	7068.285645
2811.705078	7117.168457
2810.324219	6986.521973
2808.942383	7083.858887
2807.559570	7068.110840
2806.177734	7221.007813
2804.794922	7092.235840
2803.412109	7046.007324
2802.029297	7116.340820
2800.645508	6932.092285
2799.261719	7063.356934
2797.877930	7149.771484
2796.493164	6960.249512
2795.109375	7068.144043
2793.724609	7011.236328
2792.338867	7011.646973
2790.954102	7062.181152
2789.568359	6876.440918
2788.182617	6830.351074
2786.795898	6832.584473
2785.409180	6893.845215
2784.022461	6899.641602
2782.635742	6835.701172
2781.249023	6923.739746
2779.861328	6707.895020
2778.473633	6933.521484
2777.084961	6817.811035
2775.697266	6837.903320
2774.308594	6857.987305
2772.918945	6712.004395
2771.530273	6641.057617
2770.140625	6777.184570
2768.750977	6738.374023
2767.361328	6699.578613
2765.970703	6799.936035
2764.580078	6805.729492
2763.189453	6813.303711
2761.797852	6835.136719
2760.407227	6725.061523
2759.015625	6707.696777
2757.623047	6608.379883
2756.231445	6692.582520
2754.838867	6696.605469
2753.446289	6592.006836
2752.052734	6701.085449
2750.659180	6701.543945
2749.265625	6586.327148
2747.872070	6586.807129
2746.478516	6647.769043
2745.083984	6751.392090
2743.689453	6396.197266
2742.293945	6602.943848
2740.898438	6580.311035
2739.502930	6474.160156
2738.107422	6538.624023
2736.711914	6576.415527
2735.315430	6486.312012
2733.918945	6557.837402
2732.521484	6634.660156
2731.125000	6597.849121
2729.727539	6431.499512
2728.329102	6536.689941
2726.931641	6423.637695
2725.533203	6367.385742
2724.134766	6417.553711
2722.736328	6676.908691
2721.336914	6484.149414
2719.937500	6500.590820
2718.538086	6486.903320
2717.137695	6423.617676
2715.737305	6438.289063
2714.336914	6398.058105
2712.936523	6564.990234
2711.535156	6439.782715
2710.133789	6399.574219
2708.732422	6437.237305
2707.331055	6319.204102
2705.928711	6431.154785
2704.526367	6177.002441
2703.124023	6462.204590
2701.720703	6445.017090
2700.317383	6378.350586
2698.914063	6394.759277
2697.509766	6485.359863
2696.106445	6335.708008
2694.702148	6420.986328
2693.296875	6278.468262
2691.892578	6271.930176
2690.487305	6305.987305
2689.082031	6412.376953
2687.675781	6384.645020
2686.269531	6268.730957
2684.863281	6255.145508
2683.457031	6234.512695
2682.049805	6316.130371
2680.642578	6262.006348
2679.235352	6359.444824
2677.828125	6204.912598
2676.419922	6275.901367
2675.011719	6153.145508
2673.603516	6232.919922
2672.194336	6324.984375
2670.785156	6149.490234
2669.375977	6148.272461
2667.965820	6087.237305
2666.556641	6253.133301
2665.146484	6095.377441
2663.735352	6094.169434
2662.325195	6230.080078
2660.914063	5961.693848
2659.502930	6125.691895
2658.090820	6099.881348
2656.678711	6068.811035
2655.266602	6074.632813
2653.854492	6198.092773
2652.441406	6009.027344
2651.029297	6078.041016
2649.615234	5994.360840
2648.202148	6161.598633
2646.788086	6063.901367
2645.374023	6094.266113
2643.959961	5977.333008
2642.544922	6011.208496
2641.129883	6010.016113
2639.714844	6012.328613
2638.298828	6075.959961
2636.883789	5999.432617
2635.467773	6029.766113
2634.050781	5888.492188
2632.634766	5920.585449
2631.217773	5840.647949
2629.799805	5921.734863
2628.382813	6013.287109
2626.964844	5908.888672
2625.546875	5888.478027
2624.128906	5918.782227
2622.709961	5749.781250
2621.291016	5879.727539
2619.872070	5930.984375
2618.452148	5969.990723
2617.032227	5813.339844
2615.612305	5906.493652
2614.192383	5697.534180
2612.771484	5850.028809
2611.350586	5681.307129
2609.929688	5851.194336
2608.508789	5713.943848
2607.086914	5786.071777
2605.665039	5814.570313
2604.242188	5797.721191
2602.819336	5770.418945
2601.396484	5823.304199
2599.973633	5735.015137
2598.550781	5742.585938
2597.126953	5887.767578
2595.703125	5658.447754
2594.278320	5848.859863
2592.853516	5584.820313
2591.428711	5759.505859
2590.003906	5720.075684
2588.578125	5743.295898
2587.153320	5636.042480
2585.726563	5634.921387
2584.300781	5635.539063
2582.874023	5582.263184
2581.447266	5622.867676
2580.020508	5626.961914
2578.592773	5726.613770
2577.165039	5565.661133
2575.737305	5587.130859
2574.308594	5636.374512
2572.880859	5607.475586
2571.451172	5545.608887
2570.022461	5527.151367
2568.592773	5482.674805
2567.163086	5589.133301
2565.733398	5471.819824
2564.303711	5496.739746
2562.873047	5558.056152
2561.442383	5556.948730
2560.010742	5491.722656
2558.579102	5540.874023
2557.147461	5425.440918
2555.715820	5389.721680
2554.284180	5476.957520
2552.851563	5403.154785
2551.417969	5377.845215
2549.985352	5492.719238
2548.551758	5444.909180
2547.118164	5516.477539
2545.684570	5456.574707
2544.250000	5407.070313
2542.815430	5331.653320
2541.380859	5413.556641
2539.945313	5360.633301
2538.510742	5338.831055
2537.075195	5296.307617
2535.638672	5255.528320
2534.202148	5295.921875
2532.765625	5305.223633
2531.329102	5226.492676
2529.892578	5230.626953
2528.455078	5433.176270
2527.017578	5330.315918
2525.579102	5337.875488
2524.140625	5172.998535
2522.702148	5259.889648
2521.263672	5300.207031
2519.824219	5249.173340
2518.384766	5315.320313
2516.945313	5253.967773
2515.505859	5202.973145
2514.065430	5127.891113
2512.625000	5192.287109
2511.183594	5091.418457
2509.743164	5195.375977
2508.301758	5216.705566
2506.859375	5076.326660
2505.417969	5144.106934
2503.975586	5192.945313
2502.533203	5131.736328
2501.089844	5127.273438
2499.646484	5177.803223
2498.203125	5133.814941
2496.759766	5113.893066
2495.315430	5169.546875
2493.871094	5144.474121
2492.426758	5018.121094
2490.982422	5048.013672
2489.537109	5096.770996
2488.091797	5045.995117
2486.645508	5113.602051
2485.200195	5079.993164
2483.752930	5003.529785
2482.306641	5088.247559
2480.860352	4989.530273
2479.413086	4988.532227
2477.964844	5061.208008
2476.517578	5024.222168
2475.069336	4973.549805
2473.621094	4948.582031
2472.172852	4935.607910
2470.723633	5008.220215
2469.274414	4964.435547
2467.825195	4954.887207
2466.375000	4933.368164
2464.924805	4894.754883
2463.474609	4936.522949
2462.024414	4938.953613
2460.573242	4929.418457
2459.122070	4960.899902
2457.669922	4903.524414
2456.218750	4975.995117
2454.766602	4698.325195
2453.314453	4917.653809
2451.861328	4920.083008
2450.408203	4785.963867
2448.955078	4906.166016
2447.501953	4831.818359
2446.047852	4818.909668
2444.593750	4869.107910
2443.138672	4752.183594
2441.684570	4807.488770
2440.229492	4705.962891
2438.774414	4776.591797
2437.318359	4750.077637
2435.862305	4788.304199
2434.406250	4709.002441
2432.950195	4793.194824
2431.493164	4761.590332
2430.036133	4716.382324
2428.579102	4625.245605
2427.121094	4661.748047
2425.663086	4844.523438
2424.205078	4712.599121
2422.746094	4784.768066
2421.287109	4637.607910
2419.828125	4684.267578
2418.369141	4601.760254
2416.909180	4628.020508
2415.449219	4659.365723
2413.989258	4711.077637
2412.528320	4601.462891
2411.067383	4629.398438
2409.606445	4752.370117
2408.144531	4690.326172
2406.683594	4584.195313
2405.220703	4579.882324
2403.757813	4548.436035
2402.296875	4579.738281
2400.833984	4650.018066
2399.369141	4508.408203
2397.906250	4397.356934
2396.443359	4562.505859
2394.978516	4481.977539
2393.513672	4367.610352
2392.048828	4448.005859
2390.583984	4502.975586
2389.119141	4525.765625
2387.654297	4528.240234
2386.187500	4444.430664
2384.720703	4443.537109
2383.255859	4476.466797
2381.789063	4502.619629
2380.320313	4478.047852
2378.853516	4409.541992
2377.386719	4526.940430
2375.917969	4384.116211
2374.449219	4396.747559
2372.982422	4382.353027
2371.513672	4389.913574
2370.042969	4427.856445
2368.574219	4290.257813
2367.105469	4296.144043
2365.634766	4318.898438
2364.164063	4405.739258
2362.693359	4320.533203
2361.222656	4336.523926
2359.751953	4306.994141
2358.279297	4260.622070
2356.808594	4236.173828
2355.335938	4220.158691
2353.863281	4333.844727
2352.390625	4292.555664
2350.917969	4296.742188
2349.445313	4300.927246
2347.970703	4214.228027
2346.498047	4277.320313
2345.023438	4111.590820
2343.548828	4319.328613
2342.074219	4242.784180
2340.599609	4172.996094
2339.123047	4162.069336
2337.648438	4262.067871
2336.171875	4195.677734
2334.695313	4067.156250
2333.218750	4256.132324
2331.742188	4226.726563
2330.265625	4021.044678
2328.787109	4181.379395
2327.310547	4245.988281
2325.832031	4159.558105
2324.353516	4074.840332
2322.875000	4097.500000
2321.396484	4140.272949
2319.917969	4087.464355
2318.437500	4016.238281
2316.957031	4137.768066
2315.478516	4066.560059
2313.998047	4064.064209
2312.517578	4165.411621
2311.035156	4025.584473
2309.554688	4034.817139
2308.072266	4090.914063
2306.591797	4066.659180
2305.109375	4105.994629
2303.626953	4038.251953
2302.142578	4014.021484
2300.660156	4053.343018
2299.177734	3983.979492
2297.693359	4006.575928
2296.208984	3942.262695
2294.724609	4028.349121
2293.240234	3984.103027
2291.755859	3889.770020
2290.269531	3930.729492
2288.785156	3914.910156
2287.298828	4024.281982
2285.812500	3876.614746
2284.326172	4000.965820
2282.839844	3811.659424
2281.353516	3752.516602
2279.865234	3918.502930
2278.376953	3892.704102
2276.890625	3813.578857
2275.402344	3872.799561
2273.914063	3926.997803
2272.423828	3919.540771
2270.935547	3883.774170
2269.445313	3818.050293
2267.957031	3853.902588
2266.466797	3831.485840
2264.976563	3925.563232
2263.484375	3804.979736
2261.994141	3802.546387
2260.503906	3840.027588
2259.011719	3849.227051
2257.519531	3730.417969
2256.027344	3759.580078
2254.535156	3760.480957
2253.042969	3844.450684
2251.548828	3710.788330
2250.056641	3738.269287
2248.562500	3705.965332
2247.068359	3764.976563
2245.574219	3706.124512
2244.080078	3849.739258
2242.583984	3797.529541
2241.089844	3738.706055
2239.593750	3713.073242
2238.097656	3718.953369
2236.601563	3719.857666
2235.105469	3616.348145
2233.609375	3675.268066
2232.113281	3679.493408
2230.615234	3632.370117
2229.117188	3704.498535
2227.619141	3627.586670
2226.121094	3699.686279
2224.623047	3660.871338
2223.125000	3625.381104
2221.625000	3670.967529
2220.125000	3628.873291
2218.626953	3629.791016
2217.126953	3604.255127
2215.625000	3563.852295
2214.125000	3632.541260
2212.625000	3585.539551
2211.123047	3518.732666
2209.621094	3516.367188
2208.119141	3523.910400
2206.617188	3557.866211
2205.115234	3441.598877
2203.611328	3488.759521
2202.109375	3605.199951
2200.605469	3431.255859
2199.101563	3577.347900
2197.597656	3509.013672
2196.093750	3542.922852
2194.589844	3438.360596
2193.083984	3444.254395
2191.580078	3504.517334
2190.074219	3515.336914
2188.568359	3554.150146
2187.062500	3454.630615
2185.554688	3519.780762
2184.048828	3456.519287
2182.541016	3561.137207
2181.035156	3489.666260
2179.527344	3411.644043
2178.019531	3468.512695
2176.509766	3383.949219
2175.001953	3501.626221
2173.494141	3458.180420
2171.984375	3490.343262
2170.474609	3427.201660
2168.964844	3390.367432
2167.455078	3452.084961
2165.943359	3453.025146
2164.433594	3424.415527
2162.921875	3361.350342
2161.412109	3396.767578
2159.900391	3387.873779
2158.386719	3347.817871
2156.875000	3288.098877
2155.363281	3297.267578
2153.849609	3399.871582
2152.335938	3399.179932
2150.824219	3347.691162
2149.310547	3319.159180
2147.794922	3266.069336
2146.281250	3262.129395
2144.765625	3281.112793
2143.251953	3323.005615
2141.736328	3294.506836
2140.220703	3252.928955
2138.705078	3355.331543
2137.187500	3336.656494
2135.671875	3265.659912
2134.154297	3242.105713
2132.636719	3365.676270
2131.121094	3278.373535
2129.601563	3295.679443
2128.083984	3252.533936
2126.566406	3276.370605
2125.046875	3285.500732
2123.527344	3212.996094
2122.007813	3199.282959
2120.488281	3296.548340
2118.968750	3263.244141
2117.449219	3215.271484
2115.927734	3239.080566
2114.408203	3220.483398
2112.886719	3190.481445
2111.365234	3171.901611
2109.843750	3158.217773
2108.320313	3198.306152
2106.798828	3086.884277
2105.275391	3151.400146
2103.751953	3269.623047
2102.228516	3075.228271
2100.705078	3115.291748
2099.181641	3082.110107
2097.656250	3061.957520
2096.132813	3080.852539
2094.607422	3132.265625
2093.082031	3103.984863
2091.556641	3156.997559
2090.031250	3050.708008
2088.503906	3180.083496
2086.978516	3150.190674
2085.451172	3100.818115
2083.923828	3070.953369
2082.396484	3101.175781
2080.869141	3040.479492
2079.341797	3000.906982
2077.812500	3052.218994
2076.283203	3064.574219
2074.755859	3055.838379
2073.226563	2972.509277
2071.697266	3009.192627
2070.166016	3028.029785
2068.636719	2973.928955
2067.105469	2986.283936
2065.574219	3031.033936
2064.042969	3054.709473
2062.511719	2958.543945
2060.980469	2896.416504
2059.447266	3009.132324
2057.916016	2987.478516
2056.382813	2957.743408
2054.849609	2983.021484
2053.316406	2909.630371
2051.783203	2972.099365
2050.248047	2971.491699
2048.714844	2920.776367
2047.179688	2921.794922
2045.644531	2898.577393
2044.109375	2886.676758
2042.574219	2929.692383
2041.039063	2820.906982
2039.501953	2860.689453
2037.964844	2942.420654
2036.429688	2893.406738
2034.892578	2852.479736
2033.353516	2872.865479
2031.816406	2902.919434
2030.279297	2802.356201
2028.740234	2880.773926
2027.201172	2833.443359
2025.662109	2818.360596
2024.123047	2808.116943
2022.583984	2830.092285
2021.042969	2805.356201
2019.503906	2857.914551
2017.962891	2757.523926
2016.421875	2745.692871
2014.880859	2722.602783
2013.337891	2747.785400
2011.796875	2801.909424
2010.253906	2775.605225
2008.712891	2771.820801
2007.169922	2790.541992
2005.626953	2749.791992
2004.082031	2803.859375
2002.539063	2764.729248
2000.994141	2741.676514
1999.451172	2747.537354
1997.906250	2722.891846
1996.361328	2695.045898
1994.816406	2620.671387
1993.269531	2679.500000
1991.724609	2685.366943
1990.177734	2660.758545
1988.630859	2637.763672
1987.083984	2720.587402
1985.537109	2736.057617
1983.990234	2682.613037
1982.441406	2621.179443
1980.892578	2659.085938
1979.343750	2648.931152
1977.794922	2630.773926
1976.246094	2591.812988
1974.697266	2599.283691
1973.146484	2641.955566
1971.597656	2681.410400
1970.046875	2588.085205
1968.496094	2569.962158
1966.945313	2620.599121
1965.394531	2556.117920
1963.841797	2536.414063
1962.289063	2642.953125
1960.738281	2568.921143
1959.185547	2584.365967
1957.632813	2631.742676
1956.078125	2575.320801
1954.525391	2560.425049
1952.970703	2472.121582
1951.416016	2530.651367
1949.863281	2542.893555
1948.306641	2561.510254
1946.751953	2503.576660
1945.197266	2539.730957
1943.640625	2534.426758
1942.083984	2543.467529
1940.527344	2546.131104
1938.970703	2553.572266
1937.414063	2467.042969
1935.857422	2514.305664
1934.298828	2493.092041
1932.740234	2513.270996
1931.181641	2496.840332
1929.623047	2431.094238
1928.064453	2543.533936
1926.505859	2533.468018
1924.945313	2440.723877
1923.384766	2467.246582
1921.826172	2465.149414
1920.263672	2525.026367
1918.703125	2491.142822
1917.142578	2468.392090
1915.580078	2428.181641
1914.019531	2445.146973
1912.457031	2450.992920
1910.894531	2469.533447
1909.330078	2405.553467
1907.767578	2468.515869
1906.203125	2380.770508
1904.640625	2418.339111
1903.076172	2351.251221
1901.511719	2390.395020
1899.947266	2439.031738
1898.380859	2333.952637
1896.816406	2312.877441
1895.250000	2348.828857
1893.683594	2386.348877
1892.117188	2339.944580
1890.550781	2288.810791
1888.984375	2414.941162
1887.416016	2360.648193
1885.847656	2377.562012
1884.281250	2381.816162
1882.712891	2354.444092
1881.142578	2415.613281
1879.574219	2328.183594
1878.003906	2299.258545
1876.435547	2344.601807
1874.865234	2296.730225
1873.294922	2321.524414
1871.724609	2338.413818
1870.152344	2304.780029
1868.582031	2345.339844
1867.009766	2267.535400
1865.437500	2257.601318
1863.865234	2209.815918
1862.292969	2329.210693
1860.720703	2306.656250
1859.146484	2276.229492
1857.574219	2252.119141
1856.000000	2243.775635
1854.425781	2219.681641
1852.851563	2206.622803
1851.275391	2240.810547
1849.701172	2315.917969
1848.125000	2260.347412
1846.548828	2280.338623
1844.972656	2204.343750
1843.396484	2265.238525
1841.820313	2195.568848
1840.242188	2162.093994
1838.664063	2240.252197
1837.087891	2206.781738
1835.509766	2178.039063
1833.929688	2242.005127
1832.351563	2219.550049
1830.773438	2189.251953
1829.193359	2217.062012
1827.613281	2094.156250
1826.033203	2197.310547
1824.453125	2250.208252
1822.871094	2100.701172
1821.291016	2147.322510
1819.708984	2253.516357
1818.126953	2154.273193
1816.544922	2108.367920
1814.962891	2123.604004
1813.380859	2104.361328
1811.796875	2108.625488
1810.214844	2123.851563
1808.630859	2054.510498
1807.046875	2094.791016
1805.460938	2033.310913
1803.876953	2140.872314
1802.292969	2154.510742
1800.707031	2069.591309
1799.121094	2105.134521
1797.535156	2104.698242
1795.949219	2138.655762
1794.361328	2064.750732
1792.775391	2170.586182
1791.187500	2112.328613
1789.599609	2035.350342
1788.011719	2075.533203
1786.423828	2057.927734
1784.835938	2084.039307
1783.246094	2041.466919
1781.656250	2115.944336
1780.066406	2006.297974
1778.476563	2043.316772
1776.886719	2010.144287
1775.296875	2022.200439
1773.705078	2158.956543
1772.113281	2058.765381
1770.523438	2048.989258
1768.929688	2095.299316
1767.337891	2043.466431
1765.746094	1996.326538
1764.152344	2056.630371
1762.558594	2062.429688
1760.966797	2012.202271
1759.371094	2014.896362
1757.777344	2026.922729
1756.183594	1956.515259
1754.587891	1993.427490
1752.992188	2050.534180
1751.396484	2011.251221
1749.800781	1965.768433
1748.205078	2002.647583
1746.609375	1982.038452
1745.011719	1978.520752
1743.414063	1984.320435
1741.816406	1940.442261
1740.218750	1977.287842
1738.621094	1933.429077
1737.021484	1962.503662
1735.423828	1945.034058
1733.824219	1927.571655
1732.224609	1945.776001
1730.625000	1999.624878
1729.023438	2027.105103
1727.423828	1936.815430
1725.822266	1925.568726
1724.220703	1903.484985
1722.619141	1844.246704
1721.017578	1984.745972
1719.416016	1964.211182
1717.812500	1897.259277
1716.210938	1892.223022
1714.607422	1893.376221
1713.003906	1817.201050
1711.400391	1918.874268
1709.794922	1859.730347
1708.191406	1910.347778
1706.585938	1858.956299
1704.980469	1938.906494
1703.375000	1835.013062
1701.769531	1805.289307
1700.164063	1792.561646
1698.556641	1832.323486
1696.949219	1842.745361
1695.341797	1842.361572
1693.734375	1838.892456
1692.126953	1787.611084
1690.519531	1850.462891
1688.910156	1867.036377
1687.300781	1834.277832
1685.691406	1844.683228
1684.082031	1830.432007
1682.472656	1788.458496
1680.861328	1891.274170
1679.251953	1798.491699
1677.640625	1868.932983
1676.029297	1840.838501
1674.417969	1800.444824
1672.806641	1795.453857
1671.193359	1796.617798
1669.580078	1842.379517
1667.968750	1848.145508
1666.355469	1717.094849
1664.740234	1750.548828
1663.126953	1782.452271
1661.513672	1835.850098
1659.898438	1750.989502
1658.283203	1770.587402
1656.667969	1759.470703
1655.052734	1728.403687
1653.435547	1778.687134
1651.820313	1782.919067
1650.203125	1682.834717
1648.585938	1768.371338
1646.968750	1715.866821
1645.351563	1695.578613
1643.732422	1733.543335
1642.115234	1754.635498
1640.496094	1752.736938
1638.876953	1704.885254
1637.257813	1771.913940
1635.638672	1750.107666
1634.017578	1795.667114
1632.398438	1651.423706
1630.777344	1776.554565
1629.156250	1728.757202
1627.535156	1716.159546
1625.912109	1795.321045
1624.291016	1791.887939
1622.667969	1721.197998
1621.044922	1731.536133
1619.421875	1686.863403
1617.798828	1735.395142
1616.175781	1687.685425
1614.550781	1711.764526
1612.927734	1699.193115
1611.302734	1784.313843
1609.677734	1741.211548
1608.050781	1739.321533
1606.425781	1728.279907
1604.798828	1701.991943
1603.173828	1721.457764
1601.546875	1681.462036
1599.919922	1728.358032
1598.291016	1647.234497
1596.664063	1663.648193
1595.035156	1736.411987
1593.406250	1658.383179
1591.777344	1677.828857
1590.148438	1710.966309
1588.519531	1613.206909
1586.888672	1707.206665
1585.259766	1668.817749
1583.628906	1654.779785
1581.998047	1662.036255
1580.367188	1585.673096
1578.734375	1649.180176
1577.103516	1604.764404
1575.470703	1669.760010
1573.837891	1637.510620
1572.205078	1602.237183
1570.572266	1676.302490
1568.937500	1694.167969
1567.304688	1617.925171
1565.669922	1657.039429
1564.035156	1618.764038
1562.400391	1594.155884
1560.765625	1621.118286
1559.128906	1635.939941
1557.492188	1581.026489
1555.857422	1609.489868
1554.220703	1609.152344
1552.582031	1598.210571
1550.945313	1620.593872
1549.308594	1602.082764
1547.669922	1582.065430
1546.031250	1589.301514
1544.392578	1602.587769
1542.753906	1584.095581
1541.113281	1617.041870
1539.474609	1528.986084
1537.833984	1623.923218
1536.193359	1570.672241
1534.552734	1547.671509
1532.910156	1557.924072
1531.269531	1610.473633
1529.626953	1567.842896
1527.986328	1540.331299
1526.343750	1527.929321
1524.699219	1568.364746
1523.056641	1530.305786
1521.412109	1502.824829
1519.769531	1565.867798
1518.125000	1541.407227
1516.480469	1485.290649
1514.835938	1498.546753
1513.189453	1462.057251
1511.544922	1561.209229
1509.898438	1452.402710
1508.251953	1489.755493
1506.605469	1475.888306
1504.957031	1480.094971
1503.310547	1511.396606
1501.662109	1468.937134
1500.013672	1423.485962
1498.365234	1460.797119
1496.716797	1433.415894
1495.068359	1436.121948
1493.417969	1477.917114
1491.769531	1489.631470
1490.119141	1436.718384
1488.468750	1463.461548
1486.816406	1460.149170
1485.166016	1453.834229
1483.513672	1429.502930
1481.861328	1379.660400
1480.208984	1454.417236
1478.556641	1404.590210
1476.904297	1407.295044
1475.250000	1411.498657
1473.597656	1445.694092
1471.943359	1454.385864
1470.289063	1424.098511
1468.634766	1473.256714
1466.978516	1462.457397
1465.324219	1420.202393
1463.667969	1410.916382
1462.011719	1395.644409
1460.355469	1432.779175
1458.699219	1386.075195
1457.041016	1349.866333
1455.382813	1398.956787
1453.726563	1397.165894
1452.068359	1395.375854
1450.408203	1399.567383
1448.750000	1427.676270
1447.089844	1370.579102
1445.431641	1373.278687
1443.771484	1399.881104
1442.111328	1374.193115
1440.451172	1385.850220
1438.789063	1391.530151
1437.126953	1397.207520
1435.466797	1359.601929
1433.804688	1383.188843
1432.142578	1359.028198
1430.478516	1400.502930
1428.816406	1388.277954
1427.152344	1340.277588
1425.488281	1362.352661
1423.824219	1342.692139
1422.160156	1367.737061
1420.494141	1330.208374
1418.830078	1340.352417
1417.164063	1395.161133
1415.498047	1408.264282
1413.832031	1355.875000
1412.166016	1333.268188
1410.498047	1356.789917
1408.830078	1316.343506
1407.164063	1324.987915
1405.494141	1320.247559
1403.826172	1364.562134
1402.158203	1334.550903
1400.488281	1347.641235
1398.818359	1314.675171
1397.150391	1330.734375
1395.478516	1317.089111
1393.808594	1303.449463
1392.138672	1309.110840
1390.466797	1314.769775
1388.794922	1304.106323
1387.123047	1299.380615
1385.451172	1313.935669
1383.777344	1315.140381
1382.105469	1286.697144
1380.431641	1317.547974
1378.757813	1298.006592
1377.083984	1299.213257
1375.410156	1244.137085
1373.734375	1274.970581
1372.060547	1338.361694
1370.384766	1271.470459
1368.708984	1263.802002
1367.033203	1300.523071
1365.355469	1267.704590
1363.679688	1214.194946
1362.001953	1244.988525
1360.324219	1249.159668
1358.646484	1228.203369
1356.968750	1236.809204
1355.289063	1248.366089
1353.609375	1228.900024
1351.931641	1253.744019
1350.250000	1231.332031
1348.570313	1220.738403
1346.890625	1267.704956
1345.208984	1195.137817
1343.529297	1237.664307
1341.847656	1232.977295
1340.164063	1187.005127
1338.482422	1228.031860
1336.800781	1223.349731
1335.117188	1189.197388
1333.433594	1174.212280
1331.750000	1226.990356
1330.066406	1241.456787
1328.382813	1180.826904
1326.697266	1159.967896
1325.011719	1143.532715
1323.326172	1184.489746
1321.640625	1143.047485
1319.955078	1185.457764
1318.267578	1117.564087
1316.582031	1220.238647
1314.894531	1168.534668
1313.207031	1202.086060
1311.517578	1179.792358
1309.830078	1141.349976
1308.140625	1233.629761
1306.453125	1215.748291
1304.763672	1172.918579
1303.072266	1153.589722
1301.382813	1182.691772
1299.693359	1157.500732
1298.001953	1148.454346
1296.310547	1212.733032
1294.619141	1118.644165
1292.927734	1193.162231
1291.234375	1148.943970
1289.542969	1194.120239
1287.849609	1126.482544
1286.156250	1132.101318
1284.462891	1191.894653
1282.767578	1198.960815
1281.074219	1175.287964
1279.378906	1136.991943
1277.683594	1130.898071
1275.988281	1111.642578
1274.292969	1123.105225
1272.595703	1155.031738
1270.900391	1109.471558
1269.203125	1156.001709
1267.505859	1163.061401
1265.808594	1139.440674
1264.109375	1123.132568
1262.412109	1140.415894
1260.712891	1091.996826
1259.013672	1122.415527
1257.314453	1098.828247
1255.613281	1102.971191
1253.914063	1117.322754
1252.212891	1130.209839
1250.511719	1106.640747
1248.810547	1083.081665
1247.109375	1149.891479
1245.408203	1123.418945
1243.705078	1130.463501
1242.001953	1063.224854
1240.298828	1081.928467
1238.595703	1086.065430
1236.892578	1097.478271
1235.187500	1073.960693
1233.482422	1097.010498
1231.777344	1074.957520
1230.072266	1073.274048
1228.367188	1062.867310
1226.662109	1094.621582
1224.955078	1039.160156
1223.248047	1018.595642
1221.541016	1106.996216
1219.833984	1071.901489
1218.125000	1094.906982
1216.417969	1009.015869
1214.708984	1056.700439
1213.000000	1033.255737
1211.291016	1083.816528
1209.580078	1018.309021
1207.871094	1007.939758
1206.160156	1059.923340
1204.449219	991.563354
1202.738281	1058.021484
1201.027344	1066.489868
1199.314453	1070.608276
1197.603516	1018.236694
1195.890625	1015.123047
1194.177734	1012.010620
1192.464844	995.872131
1190.750000	1060.782471
1189.037109	1022.937195
1187.322266	1047.310181
1185.607422	1031.177612
1183.892578	987.579041
1182.177734	977.248535
1180.460938	1001.610229
1178.744141	971.050781
1177.027344	1017.073853
1175.310547	1052.966431
1173.593750	970.428162
1171.876953	974.552063
1170.158203	994.552246
1168.439453	962.589966
1166.720703	1017.212585
1165.001953	983.816467
1163.281250	974.952637
1161.562500	999.256836
1159.841797	957.236084
1158.121094	977.209656
1156.400391	1010.143616
1154.677734	963.825195
1152.957031	952.095886
1151.234375	1021.015869
1149.511719	992.001892
1147.789063	973.076538
1146.066406	1011.725403
1144.341797	951.077209
1142.619141	935.049683
1140.894531	923.343628
1139.169922	920.270020
1137.445313	940.199524
1135.718750	961.557739
1133.994141	923.989807
1132.267578	964.019165
1130.541016	963.812622
1128.814453	947.809326
1127.085938	999.293823
1125.359375	938.790344
1123.630859	931.413391
1121.902344	918.300171
1120.173828	941.055908
1118.443359	976.709900
1116.714844	947.822021
1114.984375	930.415466
1113.253906	957.448792
1111.523438	931.449463
1109.792969	939.845825
1108.060547	910.996582
1106.330078	929.418152
1104.597656	866.220886
1102.865234	904.684509
1101.132813	905.921570
1099.398438	930.051636
1097.666016	949.879639
1095.931641	916.780334
1094.197266	897.994507
1092.462891	886.364807
1090.726563	911.902161
1088.992188	918.851440
1087.255859	887.222717
1085.519531	922.742065
1083.783203	898.266418
1082.046875	882.367920
1080.308594	905.018005
1078.570313	870.571594
1076.833984	854.689087
1075.093750	888.742737
1073.355469	864.305603
1071.617188	898.342468
1069.876953	875.339294
1068.136719	899.381714
1066.396484	887.788208
1064.656250	884.747986
1062.914063	887.406616
1061.173828	860.157837
1059.431641	887.025024
1057.689453	878.293396
1055.947266	821.177124
1054.203125	865.109741
1052.460938	845.007690
1050.716797	840.559143
1048.972656	821.892822
1047.228516	899.906982
1045.484375	857.072937
1043.738281	896.677673
1041.992188	883.698059
1040.246094	887.769165
1038.500000	852.075012
1036.753906	894.486145
1035.005859	902.810669
1033.259766	891.262634
1031.511719	847.084778
1029.763672	871.018555
1028.015625	890.687073
1026.265625	928.780884
1024.515625	912.986328
1022.767578	890.111694
1021.015625	936.683228
1019.265625	936.481445
1017.515625	888.120056
1015.763672	931.829468
1014.011719	986.846741
1012.259766	900.285889
1010.507813	935.472839
1008.755859	966.399719
1007.001953	932.240356
1005.248047	1015.484436
1003.494141	991.227173
1001.740234	1003.736877
999.986328	1055.816528
998.230469	1072.546143
996.476563	1070.901978
994.720703	1141.295776
992.962891	1126.927612
991.207031	1133.743896
989.451172	1236.544678
987.693359	1226.398926
985.935547	1236.011108
984.177734	1271.011108
982.419922	1259.453857
980.660156	1235.211060
978.900391	1222.256592
977.140625	1258.638428
975.380859	1249.911743
973.621094	1267.956787
971.861328	1280.359863
970.099609	1292.757446
968.337891	1282.622681
966.576172	1237.301758
964.814453	1259.551514
963.050781	1179.079468
961.289063	1209.772461
959.525391	1222.168701
957.761719	1209.249634
955.998047	1262.408691
954.232422	1207.321533
952.466797	1218.302124
950.703125	1229.277832
948.937500	1209.347900
947.169922	1238.576416
945.404297	1187.765381
943.636719	1267.517944
941.871094	1277.067383
940.103516	1191.204102
938.335938	1172.710571
936.566406	1106.541138
934.798828	1057.226318
933.029297	1016.343811
931.259766	988.092896
929.490234	926.224243
927.718750	898.004883
925.949219	876.800903
924.177734	845.803711
922.406250	868.021179
920.634766	877.631409
918.863281	848.053406
917.089844	805.895996
915.316406	865.870850
913.542969	834.915894
911.769531	873.885132
909.996094	828.962585
908.220703	858.132874
906.447266	804.849243
904.671875	792.101807
902.896484	798.913696
901.119141	772.208984
899.343750	861.391846
897.566406	795.602783
895.789063	876.368896
894.011719	758.983032
892.234375	764.398010
890.455078	815.831909
888.677734	783.586487
886.898438	790.386475
885.119141	769.309937
883.337891	781.683411
881.558594	759.224731
879.777344	821.734680
877.996094	790.922119
876.214844	822.770325
874.433594	759.957947
872.650391	837.720520
870.869141	820.843567
869.085938	770.590881
867.302734	771.814331
865.519531	761.914246
863.734375	774.259338
861.951172	776.870728
860.166016	826.722229
858.380859	765.420227
856.593750	801.363953
854.808594	785.915894
853.021484	806.568848
851.234375	748.100098
849.447266	779.853271
847.660156	815.754639
845.873047	812.803284
844.083984	777.958313
842.294922	798.585754
840.505859	785.936951
838.716797	784.380310
836.925781	792.522949
835.136719	770.187012
833.345703	828.186523
831.554688	797.544617
829.763672	862.434509
827.970703	824.878296
826.179688	830.233765
824.386719	870.172424
822.593750	900.411743
820.798828	886.387695
819.005859	894.489929
817.210938	888.766418
815.417969	928.648621
813.621094	918.775208
811.826172	843.984131
810.031250	800.988953
808.234375	860.185303
806.437500	822.726868
804.640625	814.267029
802.843750	790.632935
801.046875	841.502686
799.248047	804.080688
797.449219	849.409668
795.650391	809.244873
793.851563	889.010620
792.050781	891.572998
790.251953	902.400391
788.451172	938.016418
786.650391	944.697571
784.849609	962.390198
783.046875	920.885132
781.244141	964.723145
779.443359	949.377808
777.640625	960.175720
775.835938	924.208252
774.033203	928.131775
772.228516	892.186890
770.423828	896.115540
768.619141	862.941467
766.814453	953.424744
765.009766	950.469727
763.203125	922.798096
761.396484	972.021545
759.589844	1006.124756
757.783203	1047.074585
755.974609	1022.149841
754.167969	1024.670166
752.359375	1016.217957
750.550781	1018.738342
748.740234	1007.549377
746.931641	975.807556
745.121094	989.296631
743.310547	968.531799
741.500000	908.057068
739.689453	966.739441
737.876953	924.088623
736.066406	893.774902
734.253906	892.211182
732.441406	861.917542
730.626953	838.476135
728.814453	858.805786
727.000000	831.273560
725.185547	852.962708
723.371094	817.243896
721.556641	811.599915
719.740234	837.377075
717.925781	751.152832
716.109375	757.815735
714.291016	711.235413
712.474609	760.213928
710.658203	796.890198
708.839844	770.795288
707.021484	801.997314
705.203125	781.367188
703.382813	783.922913
701.564453	756.490417
699.744141	756.324890
697.923828	734.360168
696.103516	706.956360
694.283203	671.393433
692.460938	747.493530
690.638672	743.246094
688.816406	699.532654
686.994141	695.297485
685.171875	697.865906
683.347656	693.632874
681.523438	736.993469
679.699219	715.080505
677.875000	721.719666
676.050781	760.968872
674.224609	701.024841
672.398438	751.127441
670.572266	752.320801
668.746094	731.790649
666.917969	707.197327
665.091797	655.473022
663.263672	671.610779
661.435547	721.653687
659.607422	690.302979
657.777344	752.522827
655.947266	702.200623
654.119141	716.954895
652.287109	726.282654
650.457031	690.900940
648.626953	708.356689
646.794922	727.158813
644.962891	691.800049
643.130859	764.738281
641.298828	729.386658
639.464844	738.697021
637.630859	830.513550
635.796875	846.559204
633.962891	824.740784
632.128906	893.498230
630.292969	916.276550
628.458984	852.571533
626.623047	923.979187
624.785156	941.333374
622.949219	1020.791504
621.111328	977.368652
619.275391	987.951172
617.437500	1039.009888
615.597656	967.281006
613.759766	989.997498
611.919922	931.795532
610.080078	922.153442
608.240234	877.470642
606.400391	939.266663
604.560547	870.348389
602.718750	919.995728
600.876953	1012.715454
599.035156	993.643127
597.193359	1047.268677
595.349609	1067.225464
593.507813	1084.482300
591.664063	1064.065430
589.820313	1102.833984
587.974609	1146.963867
586.130859	1148.055786
584.285156	1114.202271
582.439453	1127.394409
580.593750	1085.499634
578.748047	1071.829224
576.900391	1089.050171
575.052734	1078.069946
573.205078	1032.195801
571.357422	1033.310425
569.509766	1082.724487
567.660156	1066.389526
565.810547	1090.294067
563.960938	1075.305176
562.111328	1018.767944
560.259766	1073.491211
558.410156	996.880737
556.558594	979.246216
554.707031	937.512024
552.855469	927.932312
551.001953	895.598633
549.148438	926.184753
547.294922	924.642456
545.441406	936.479004
543.587891	971.048279
541.732422	897.286072
539.878906	957.250549
538.023438	973.079163
536.167969	1028.991333
534.310547	1084.878662
532.455078	1202.186401
530.597656	1355.499878
528.740234	1658.285034
526.882813	2504.231934
525.023438	4663.036133
523.166016	9815.031250
521.306641	15877.204102
519.447266	14345.278320
517.585938	6913.708008
515.726563	3191.468018
513.865234	1951.243652
512.003906	1460.444458
510.142578	1191.011841
508.281250	1092.185669
506.417969	997.397949
504.556641	971.882019
502.693359	851.872681
500.828125	886.284058
498.964844	870.122620
497.101563	831.355408
495.236328	833.831421
493.371094	858.909119
491.505859	821.499146
489.638672	819.988525
487.771484	761.344421
485.906250	750.548828
484.039063	763.663940
482.169922	731.627441
480.302734	777.928894
478.433594	748.557739
476.564453	755.026794
474.695313	809.252075
472.826172	806.420288
470.955078	852.653748
469.083984	865.722656
467.212891	880.111206
465.341797	915.696106
463.470703	903.569397
461.597656	1013.310181
459.724609	1028.977417
457.851563	1081.709595
455.978516	1106.620483
454.105469	1259.891602
452.230469	1303.275513
450.355469	1324.152100
448.480469	1436.274292
446.605469	1472.978760
444.728516	1491.159668
442.851563	1513.297363
440.976563	1559.209717
439.097656	1511.305542
437.220703	1507.008179
435.341797	1463.098145
433.464844	1439.010254
431.585938	1482.247803
429.705078	1450.248535
427.826172	1427.498535
425.945313	1452.243408
424.064453	1400.490845
422.183594	1380.403564
420.302734	1471.049316
418.421875	1508.940552
416.539063	1706.239746
414.656250	1975.900879
412.773438	2456.158203
410.888672	3248.255859
409.005859	4612.631348
407.121094	6371.230469
405.236328	7269.827148
403.351563	7206.383789
401.464844	6226.258789
399.580078	4710.077148
397.693359	3315.515625
395.806641	2399.994629
393.917969	1796.311035
392.031250	1602.789063
390.142578	1700.943115
388.253906	2615.850098
386.365234	4658.119141
384.476563	6931.809570
382.585938	6333.171387
380.695313	3525.372803
378.804688	2081.697998
376.914063	1655.021362
375.023438	1434.382568
373.130859	1326.574341
371.238281	1241.093384
369.345703	1141.237549
367.453125	1133.123901
365.558594	1079.175049
363.666016	992.515381
361.771484	981.821777
359.875000	874.281372
357.980469	915.959229
356.083984	915.755371
354.189453	861.926392
352.292969	864.349792
350.394531	853.698608
348.498047	832.595642
346.599609	837.637329
344.701172	851.822021
342.802734	796.772583
340.904297	818.795349
339.003906	770.305664
337.105469	787.103088
335.205078	771.267517
333.302734	785.447693
331.402344	740.921753
329.500000	744.669067
327.597656	745.807007
325.695313	722.176575
323.792969	749.384399
321.890625	727.066589
319.986328	721.693726
318.082031	730.649658
316.177734	739.601501
314.271484	721.211060
312.367188	743.176270
310.460938	761.227966
308.554688	729.835266
306.648438	768.692322
304.740234	798.429443
302.833984	782.650269
300.925781	743.481812
299.017578	757.610474
297.107422	700.276001
295.199219	736.489502
293.289063	692.171570
291.378906	702.403809
289.468750	693.160583
287.556641	702.090210
285.646484	727.882874
283.734375	700.479431
281.822266	662.713074
279.910156	640.522766
277.996094	646.861206
276.082031	667.453125
274.167969	664.712524
272.253906	619.223389
270.339844	696.794373
268.423828	648.728577
266.507813	627.870300
264.591797	654.910034
262.675781	628.883667
260.759766	623.568176
258.841797	633.776123
256.923828	642.686340
255.005859	646.421143
253.085938	635.936096
251.167969	666.808228
249.248047	621.439941
247.328125	662.634827
245.408203	639.241455
243.486328	650.718384
241.566406	632.501282
239.644531	668.494568
237.722656	629.637695
235.798828	634.656555
233.876953	662.887085
231.953125	680.789917
230.029297	670.324768
228.105469	659.864319
226.179688	697.083313
224.253906	695.638916
222.330078	699.346924
220.402344	714.641968
218.476563	722.205994
216.550781	710.460571
214.623047	669.124512
212.695313	726.866577
210.767578	703.552063
208.837891	777.977295
206.908203	704.522339
204.980469	713.361755
203.048828	744.042969
201.119141	696.340027
199.189453	739.855896
197.257813	749.963440
195.326172	716.413940
193.394531	748.343445
191.460938	712.242615
189.529297	703.101624
187.595703	731.164246
185.662109	709.198425
183.726563	652.623840
181.792969	748.618408
179.857422	699.749878
177.921875	679.091919
175.986328	694.311646
174.048828	657.014587
172.113281	695.280334
170.175781	678.482239
168.238281	692.408386
166.298828	646.187988
164.361328	731.755493
162.421875	665.082825
160.482422	684.114136
158.542969	689.074158
156.601563	685.084900
154.662109	705.376648
152.720703	723.104065
150.779297	714.000610
148.835938	692.131165
146.894531	660.057861
144.951172	640.763184
143.007813	639.342957
141.064453	618.785645
139.119141	613.544250
137.175781	637.636475
135.230469	610.718323
133.285156	587.636353
131.337891	583.680908
129.392578	587.371948
127.445313	585.965942
125.498047	589.654724
123.550781	569.149780
121.601563	569.021667
119.652344	567.620911
117.705078	547.134644
115.753906	557.188416
113.804688	548.160095
111.853516	499.717896
109.904297	441.127380
107.953125	382.563202
106.000000	338.002960
104.048828	251.539505
