#Wave		#Intensity
5504.711914	3098.964600
5503.824219	3140.880371
5502.936523	2997.854248
5502.048828	3050.416260
5501.160156	3130.889648
5500.272461	3057.749756
5499.383789	3012.554688
5498.496094	3187.904297
5497.607422	3109.209961
5496.718750	3167.279541
5495.830078	3060.714355
5494.940430	3049.032227
5494.051758	3221.435791
5493.162109	3006.158936
5492.272461	3167.357910
5491.382813	3205.843506
5490.493164	3085.444336
5489.603516	3062.622314
5488.712891	3126.181885
5487.823242	3164.647705
5486.932617	3105.614258
5486.041992	3169.133545
5485.151367	3285.533691
5484.260742	3187.535400
5483.369141	3181.422852
5482.478516	3161.397461
5481.586914	3263.806641
5480.695313	3243.773682
5479.803711	3229.310791
5478.912109	3281.596924
5478.020508	3167.032715
5477.127930	3169.270264
5476.236328	3143.710938
5475.343750	3226.545654
5474.451172	3214.878418
5473.558594	3194.880615
5472.666016	3147.112549
5471.772461	3204.894531
5470.879883	3234.889404
5469.986328	3300.965088
5469.092773	3225.453613
5468.199219	3285.957275
5467.305664	3310.367676
5466.411133	3284.831055
5465.517578	3306.459229
5464.623047	3200.503174
5463.728516	3202.727539
5462.833984	3362.980469
5461.939453	3356.860107
5461.044922	3400.628662
5460.150391	3319.686035
5459.254883	3429.938721
5458.359375	3243.755615
5457.463867	3279.204346
5456.568359	3353.408447
5455.672852	3424.818115
5454.777344	3319.040283
5453.880859	3265.884766
5452.984375	3276.393555
5452.087891	3367.134277
5451.191406	3355.491699
5450.294922	3388.105957
5449.398438	3440.065918
5448.500977	3378.648926
5447.604492	3494.173340
5446.707031	3452.115234
5445.809570	3484.684326
5444.912109	3453.693848
5444.013672	3367.464355
5443.116211	3458.032715
5442.217773	3451.916504
5441.320313	3520.350586
5440.421875	3367.914307
5439.523438	3419.778320
5438.624023	3419.191406
5437.725586	3465.510498
5436.826172	3351.809326
5435.927734	3398.123779
5435.028320	3549.216309
5434.128906	3482.432617
5433.229492	3600.376953
5432.329102	3558.414063
5431.429688	3455.836670
5430.529297	3526.883301
5429.628906	3498.728760
5428.728516	3473.338135
5427.828125	3577.392090
5426.927734	3463.884766
5426.026367	3427.500977
5425.125977	3468.200439
5424.224609	3398.802979
5423.323242	3505.531494
5422.421875	3367.373291
5421.520508	3421.807861
5420.618164	3577.980225
5419.716797	3541.619385
5418.814453	3722.460449
5417.912109	3493.673828
5417.009766	3539.794434
5416.107422	3547.429932
5415.205078	3541.325684
5414.301758	3551.704590
5413.399414	3553.840820
5412.496094	3550.484131
5411.592773	3549.874023
5410.689453	3593.183594
5409.785156	3529.442383
5408.881836	3586.460693
5407.977539	3607.792725
5407.073242	3629.117432
5406.168945	3746.426514
5405.264648	3466.082764
5404.360352	3769.813721
5403.456055	3607.434326
5402.550781	3601.332520
5401.645508	3710.324219
5400.740234	3564.477051
5399.834961	3643.304443
5398.929688	3546.818115
5398.024414	3655.743652
5397.118164	3616.784180
5396.212891	3761.246582
5395.306641	3697.649414
5394.400391	3743.533936
5393.493164	3671.753418
5392.586914	3676.593018
5391.680664	3640.404297
5390.773438	3732.755127
5389.866211	3704.771484
5388.958984	3783.410889
5388.051758	3760.894287
5387.144531	3771.178223
5386.236328	3669.435547
5385.329102	3731.635498
5384.420898	3700.948730
5383.512695	3776.775879
5382.604492	3784.317139
5381.696289	3778.206055
5380.787109	3799.391357
5379.878906	3700.494385
5378.969727	3863.567871
5378.060547	3791.973877
5377.151367	3723.131836
5376.242188	3891.571289
5375.332031	3781.836182
5374.422852	3827.529785
5373.512695	3791.436768
5372.602539	3967.923584
5371.692383	3811.929443
5370.782227	3767.684570
5369.872070	3788.826172
5368.960938	3736.430176
5368.050781	3803.858643
5367.139648	3792.313965
5366.228516	3922.313965
5365.317383	3761.071533
5364.405273	3972.661865
5363.494141	3797.863525
5362.582031	3979.453613
5361.669922	3815.592529
5360.757813	3812.216064
5359.845703	3923.024170
5358.933594	3954.966553
5358.021484	3935.261230
5357.108398	3896.541504
5356.195313	3966.506592
5355.282227	3887.050049
5354.369141	3973.287354
5353.456055	3948.164063
5352.542969	3920.334473
5351.628906	3968.519043
5350.714844	3883.701660
5349.801758	3869.464600
5348.887695	4104.832520
5347.972656	3960.358398
5347.058594	4032.902588
5346.143555	3912.895264
5345.229492	3914.931885
5344.314453	4028.106445
5343.399414	3978.627686
5342.484375	3942.714600
5341.568359	4004.348633
5340.653320	4028.037842
5339.737305	4000.259521
5338.821289	3958.951172
5337.905273	4088.225098
5336.989258	3971.120361
5336.073242	4046.217529
5335.157227	4048.225586
5334.240234	3952.832520
5333.323242	4176.673828
5332.406250	4027.198730
5331.489258	4121.149902
5330.572266	4060.957275
5329.654297	4073.772949
5328.737305	4286.588379
5327.819336	4072.367188
5326.901367	3941.976318
5325.983398	4124.989258
5325.065430	4162.089844
5324.146484	4228.882813
5323.228516	4268.652344
5322.309570	4146.437988
5321.390625	4302.266602
5320.471680	4266.442383
5319.552734	4230.630371
5318.632813	4181.342773
5317.713867	4121.283203
5316.793945	4123.268066
5315.874023	4254.672363
5314.954102	4154.193848
5314.034180	4088.789063
5313.114258	4311.755371
5312.193359	4397.230957
5311.272461	4229.448730
5310.352539	4360.697754
5309.431641	4330.321777
5308.509766	4275.723633
5307.588867	4145.766113
5306.667969	4346.919434
5305.746094	4265.435059
5304.824219	4275.460449
5303.902344	4261.270996
5302.980469	4373.503418
5302.058594	4472.250977
5301.135742	4498.366211
5300.213867	4392.743652
5299.291016	4389.296875
5298.368164	4477.223145
5297.445313	4347.476074
5296.521484	4526.718750
5295.598633	4354.031738
5294.674805	4530.525391
5293.750977	4462.615234
5292.827148	4410.835938
5291.903320	4471.809570
5290.979492	4597.169922
5290.055664	4475.629883
5289.130859	4493.635742
5288.206055	4597.468750
5287.281250	4521.582031
5286.356445	4432.314941
5285.431641	4426.187012
5284.506836	4524.598145
5283.581055	4454.136230
5282.655273	4563.226074
5281.729492	4482.065430
5280.803711	4534.861816
5279.877930	4539.434082
5278.952148	4434.219727
5278.025391	4492.351074
5277.098633	4545.108887
5276.171875	4480.092285
5275.245117	4500.723633
5274.318359	4604.283691
5273.391602	4616.861816
5272.463867	4554.551270
5271.536133	4617.937988
5270.609375	4694.670898
5269.680664	4509.418457
5268.752930	4599.505859
5267.825195	4574.660645
5266.896484	4696.765137
5265.968750	4557.050293
5265.040039	4671.103027
5264.111328	4622.229492
5263.182617	4696.184082
5262.252930	4700.709961
5261.324219	4593.141113
5260.394531	4723.098145
5259.464844	4682.261230
5258.535156	4705.458008
5257.605469	4691.308105
5256.675781	4770.492676
5255.745117	4841.651855
5254.814453	4763.509766
5253.883789	4645.416504
5252.953125	4687.247559
5252.022461	4651.800293
5251.091797	4714.925781
5250.160156	4799.335938
5249.229492	4827.796387
5248.297852	4773.711914
5247.366211	4724.969727
5246.434570	4761.412109
5245.501953	4901.622070
5244.570313	4975.268555
5243.637695	4772.238281
5242.705078	4763.432617
5241.772461	4871.633789
5240.839844	4873.448242
5239.907227	4752.981934
5238.973633	4855.812500
5238.041016	4828.397461
5237.107422	4824.903809
5236.173828	4805.472656
5235.240234	4913.534180
5234.305664	4742.729980
5233.372070	4911.830566
5232.437500	5001.234863
5231.502930	4875.624023
5230.568359	5002.154785
5229.633789	4921.691406
5228.699219	5098.571777
5227.764648	4946.507324
5226.829102	4889.961426
5225.893555	4928.883789
5224.958008	4996.952637
5224.022461	5064.997559
5223.086914	4947.520020
5222.150391	4986.404297
5221.213867	4932.558105
5220.278320	5074.727539
5219.341797	5126.810059
5218.405273	5020.013184
5217.467773	5003.258789
5216.531250	4986.510254
5215.593750	5162.947754
5214.656250	5074.738770
5213.718750	5087.085449
5212.781250	5152.325684
5211.843750	5124.986816
5210.905273	5206.062012
5209.967773	5128.495117
5209.029297	5204.254883
5208.090820	5118.787109
5207.152344	5162.815918
5206.212891	5053.609375
5205.274414	5039.525391
5204.334961	5154.846191
5203.396484	5103.784668
5202.457031	5285.050781
5201.516602	5099.373047
5200.577148	5267.381836
5199.637695	5287.575195
5198.697266	5152.116211
5197.756836	5217.161621
5196.816406	5290.095215
5195.875977	5297.086426
5194.935547	5238.169434
5193.994141	5174.001465
5193.053711	5167.832031
5192.112305	5348.738770
5191.170898	5187.112305
5190.229492	5157.237793
5189.287109	5303.816406
5188.345703	5268.665527
5187.403320	5344.094238
5186.460938	5258.938477
5185.518555	5376.448730
5184.576172	5346.571289
5183.633789	5200.952148
5182.690430	5289.477539
5181.748047	5346.414063
5180.804688	5308.673828
5179.861328	5270.946777
5178.917969	5249.002930
5177.973633	5371.605957
5177.030273	5507.303711
5176.085938	5361.857422
5175.141602	5458.109863
5174.197266	5528.067383
5173.252930	5419.452148
5172.308594	5541.896484
5171.363281	5412.318359
5170.418945	5351.017578
5169.473633	5426.179199
5168.528320	5417.365234
5167.582031	5408.554199
5166.636719	5520.381348
5165.691406	5440.759766
5164.745117	5636.433105
5163.798828	5517.501465
5162.852539	5631.851563
5161.906250	5602.049316
5160.958984	5755.641113
5160.012695	5558.190918
5159.065430	5669.834961
5158.118164	5566.730957
5157.170898	5688.805664
5156.223633	5609.291016
5155.276367	5678.975098
5154.328125	5497.442383
5153.379883	5632.523926
5152.432617	5704.782715
5151.484375	5617.487305
5150.535156	5768.166016
5149.586914	5688.732422
5148.637695	5753.088379
5147.689453	5725.953125
5146.740234	5704.052734
5145.791016	5815.396484
5144.840820	5733.411133
5143.891602	5659.288574
5142.941406	5864.581543
5141.992188	5725.194824
5141.041992	5854.708496
5140.091797	5665.786621
5139.140625	5748.297363
5138.190430	5765.558105
5137.239258	5816.721680
5136.289063	5841.788086
5135.337891	5866.845215
5134.386719	5980.532715
5133.434570	5945.604980
5132.483398	5809.050781
5131.531250	5985.224121
5130.579102	5877.367676
5129.627930	5949.276855
5128.674805	5872.715332
5127.722656	5923.769043
5126.770508	5909.719727
5125.817383	5981.572266
5124.864258	5889.442383
5123.911133	5857.191406
5122.958008	5973.241699
5122.004883	6099.656250
5121.050781	5973.760254
5120.097656	6131.332520
5119.143555	5862.486816
5118.189453	6136.992676
5117.235352	6091.742188
5116.280273	6207.608398
5115.326172	6123.391113
5114.371094	6262.588867
5113.416016	6136.837891
5112.460938	5969.585449
5111.505859	6090.562988
5110.550781	6338.687500
5109.594727	6264.915527
5108.639648	6323.502441
5107.683594	6166.739258
5106.727539	6178.632813
5105.770508	6281.292480
5104.814453	6272.417480
5103.857422	6284.285645
5102.901367	6143.217285
5101.944336	6201.752930
5100.987305	6353.549805
5100.030273	6417.208984
5099.072266	6291.756348
5098.115234	6461.585938
5097.157227	6437.153809
5096.199219	6270.339844
5095.241211	6295.130371
5094.282227	6400.139648
5093.324219	6399.022461
5092.365234	6304.769531
5091.407227	6404.548340
5090.448242	6488.774414
5089.489258	6425.583984
5088.529297	6494.264648
5087.570313	6490.545898
5086.610352	6409.296387
5085.650391	6555.461914
5084.690430	6425.142578
5083.730469	6702.988770
5082.770508	6621.757813
5081.809570	6568.958496
5080.849609	6650.424805
5079.888672	6558.919922
5078.927734	6511.319824
5077.966797	6427.611816
5077.004883	6689.636719
5076.043945	6603.346680
5075.082031	6666.667480
5074.120117	6546.890137
5073.158203	6635.979004
5072.196289	6740.502441
5071.234375	6695.512207
5070.271484	6557.775391
5069.308594	6778.189453
5068.345703	6540.028320
5067.382813	6765.518555
5066.419922	6725.711914
5065.457031	6884.153809
5064.493164	6751.674805
5063.529297	6814.833984
5062.565430	6793.057617
5061.601563	6838.178223
5060.637695	6880.710449
5059.673828	6977.234863
5058.708984	6893.731934
5057.744141	6959.369629
5056.779297	6945.300293
5055.814453	6910.675781
5054.849609	6945.440430
5053.883789	6967.347168
5052.918945	6881.363770
5051.953125	6993.160156
5050.987305	6866.117676
5050.020508	7016.386230
5049.054688	6863.715332
5048.088867	7026.763184
5047.122070	7017.835938
5046.155273	6926.815918
5045.188477	7128.242188
5044.221680	7039.798340
5043.253906	6982.155273
5042.287109	6988.624512
5041.319336	7156.575195
5040.351563	7116.880859
5039.383789	7133.571777
5038.416016	7170.751465
5037.447266	7128.512695
5036.479492	7117.020996
5035.510742	7241.242188
5034.541992	7227.173828
5033.573242	7215.669434
5032.604492	7127.393066
5031.634766	7138.938965
5030.665039	7298.862305
5029.696289	7269.447754
5028.726563	7217.026367
5027.755859	7220.875977
5026.786133	7326.985352
5025.815430	7274.580566
5024.845703	7181.303711
5023.875000	7384.459961
5022.904297	7245.210938
5021.933594	7302.689941
5020.961914	7467.409668
5019.991211	7386.946289
5019.019531	7477.557617
5018.047852	7307.783203
5017.076172	7431.552734
5016.104492	7534.865723
5015.131836	7620.284668
5014.160156	7430.196777
5013.187500	7296.281250
5012.214844	7672.374023
5011.242188	7490.024414
5010.268555	7542.238770
5009.295898	7469.559570
5008.322266	7539.594727
5007.348633	7428.727051
5006.375000	7552.233887
5005.401367	7614.576660
5004.427734	7590.325195
5003.453125	7616.998047
5002.479492	7737.838867
5001.504883	7527.800293
5000.530273	7732.580566
4999.554688	7718.503906
4998.580078	7516.209473
4997.604492	7756.486328
4996.629883	7724.613770
4995.654297	7652.076660
4994.678711	7620.232910
4993.702148	7761.210449
4992.726563	7795.420898
4991.750000	7710.218750
4990.773438	7696.166016
4989.796875	7811.634277
4988.820313	7894.053711
4987.843750	7933.286621
4986.866211	7972.505859
4985.889648	7770.623535
4984.912109	8012.841797
4983.934570	7932.792480
4982.957031	7987.201172
4981.978516	7927.471680
4981.000977	8070.605469
4980.022461	7912.012695
4979.043945	8082.979492
4978.065430	8079.025879
4977.086914	7996.527344
4976.107422	8152.188477
4975.127930	7955.726074
4974.149414	8002.444824
4973.169922	8183.341797
4972.189453	8088.237793
4971.209961	8195.654297
4970.230469	8204.336914
4969.250000	8046.023438
4968.269531	8110.383789
4967.289063	7947.083008
4966.308594	8284.554688
4965.327148	8045.427734
4964.346680	8261.419922
4963.365234	8297.880859
4962.383789	8346.964844
4961.402344	8342.971680
4960.420898	8344.031250
4959.438477	8430.965820
4958.457031	8353.725586
4957.474609	8425.477539
4956.492188	8446.716797
4955.509766	8437.660156
4954.527344	8504.312500
4953.543945	8555.801758
4952.560547	8347.440430
4951.577148	8451.906250
4950.593750	8349.549805
4949.610352	8514.488281
4948.626953	8444.927734
4947.642578	8541.739258
4946.658203	8502.437500
4945.674805	8568.969727
4944.689453	8741.280273
4943.705078	8528.175781
4942.720703	8702.950195
4941.735352	8663.653320
4940.750000	8732.614258
4939.764648	8794.000000
4938.779297	8752.189453
4937.793945	8725.490234
4936.807617	8799.421875
4935.821289	8885.902344
4934.835938	8876.794922
4933.849609	8747.006836
4932.862305	8722.842773
4931.875977	8759.007813
4930.888672	8790.134766
4929.902344	8828.786133
4928.915039	9040.753906
4927.926758	8946.234375
4926.939453	9025.015625
4925.952148	8950.617188
4924.963867	8723.118164
4923.975586	8962.524414
4922.987305	8933.342773
4921.999023	8793.779297
4921.010742	9012.977539
4920.021484	8988.817383
4919.032227	9082.523438
4918.042969	9098.473633
4917.053711	9219.700195
4916.064453	9125.344727
4915.075195	9286.616211
4914.084961	9072.022461
4913.094727	9123.028320
4912.104492	9326.791016
4911.114258	9174.903320
4910.124023	9178.293945
4909.132813	9144.135742
4908.142578	9207.595703
4907.151367	9228.494141
4906.160156	9369.473633
4905.167969	9332.802734
4904.176758	9346.163086
4903.184570	9392.026367
4902.193359	9452.874023
4901.201172	9401.213867
4900.208984	9454.540039
4899.215820	9425.386719
4898.223633	9466.196289
4897.230469	9526.974609
4896.237305	9430.391602
4895.244141	9536.100586
4894.250977	9651.758789
4893.257813	9527.746094
4892.263672	9486.134766
4891.269531	9689.072266
4890.275391	9557.632813
4889.281250	9715.587891
4888.287109	9554.261719
4887.292969	9582.499023
4886.297852	9820.141602
4885.302734	9855.797852
4884.307617	9831.629883
4883.312500	9824.912109
4882.317383	9992.586914
4881.321289	9990.823242
4880.325195	9588.103516
4879.329102	9979.828125
4878.333008	10132.417969
4877.336914	9951.415039
4876.340820	9977.033203
4875.343750	9905.602539
4874.346680	9916.292969
4873.349609	10006.574219
4872.352539	9828.237305
4871.355469	10065.203125
4870.357422	10093.258789
4869.360352	10039.279297
4868.362305	10238.803711
4867.364258	10155.000000
4866.365234	10006.634766
4865.367188	10201.090820
4864.368164	10154.587891
4863.370117	10157.760742
4862.371094	10362.015625
4861.371094	10295.651367
4860.372070	10219.382813
4859.373047	10167.954102
4858.373047	10476.252930
4857.373047	10459.520508
4856.373047	10427.914063
4855.373047	10324.414063
4854.372070	10270.530273
4853.372070	10343.073242
4852.371094	10358.591797
4851.370117	10403.837891
4850.369141	10397.044922
4849.368164	10533.909180
4848.366211	10564.240234
4847.364258	10500.474609
4846.363281	10624.869141
4845.361328	10630.416016
4844.358398	10579.043945
4843.356445	10512.844727
4842.353516	10698.992188
4841.351563	10753.986328
4840.348633	10576.510742
4839.344727	10626.561523
4838.341797	10800.194336
4837.338867	10857.602539
4836.334961	10793.904297
4835.331055	10908.117188
4834.327148	11017.349609
4833.323242	10847.453125
4832.318359	10793.677734
4831.314453	10883.119141
4830.309570	10891.067383
4829.304688	10694.163086
4828.299805	11017.999023
4827.294922	10996.312500
4826.289063	10898.163086
4825.284180	10989.955078
4824.278320	10946.089844
4823.272461	11005.789063
4822.265625	11230.623047
4821.259766	11144.838867
4820.252930	11322.749023
4819.247070	11291.180664
4818.240234	11190.651367
4817.233398	10999.031250
4816.225586	11090.655273
4815.218750	11036.990234
4814.210938	11086.728516
4813.203125	11042.926758
4812.195313	11264.891602
4811.187500	11208.771484
4810.179688	11236.304688
4809.170898	11290.878906
4808.162109	11500.346680
4807.153320	11419.637695
4806.144531	11346.332031
4805.135742	11408.219727
4804.125977	11489.743164
4803.117188	11485.250977
4802.107422	11488.128906
4801.097656	11407.505859
4800.086914	11732.056641
4799.077148	11759.438477
4798.066406	11529.080078
4797.055664	11598.207031
4796.045898	11394.948242
4795.034180	11522.952148
4794.023438	11582.229492
4793.011719	11602.249023
4792.000977	11686.010742
4790.989258	11659.423828
4789.977539	11623.041992
4788.965820	11807.230469
4787.953125	11704.678711
4786.940430	11727.100586
4785.928711	11832.792969
4784.916016	11818.450195
4783.902344	11715.966797
4782.889648	12027.238281
4781.876953	11780.344727
4780.863281	11851.670898
4779.849609	12179.878906
4778.835938	11891.500000
4777.821289	12026.359375
4776.807617	12024.226563
4775.792969	11919.403320
4774.779297	12325.532227
4773.763672	12022.715820
4772.749023	12089.006836
4771.734375	12050.212891
4770.718750	12148.230469
4769.704102	12226.673828
4768.688477	12085.311523
4767.671875	11941.557617
4766.656250	12215.283203
4765.640625	12330.267578
4764.624023	12345.160156
4763.607422	12289.292969
4762.590820	12250.520508
4761.574219	12355.659180
4760.556641	12216.909180
4759.540039	12300.073242
4758.522461	12268.636719
4757.504883	12563.797852
4756.487305	12359.314453
4755.468750	12525.227539
4754.451172	12508.387695
4753.432617	12657.165039
4752.414063	12430.893555
4751.395508	12482.246094
4750.376953	12611.474609
4749.357422	12331.787109
4748.338867	12624.027344
4747.319336	12658.278320
4746.299805	12607.379883
4745.280273	12826.453125
4744.259766	12758.521484
4743.240234	12639.559570
4742.219727	12722.387695
4741.199219	12734.708984
4740.178711	12827.209961
4739.158203	12713.176758
4738.136719	12791.073242
4737.115234	12837.371094
4736.094727	12752.533203
4735.073242	12861.939453
4734.050781	13007.716797
4733.029297	12842.805664
4732.006836	13037.060547
4730.984375	13056.576172
4729.961914	12833.530273
4728.939453	12884.600586
4727.916992	13100.530273
4726.893555	12957.594727
4725.871094	13173.432617
4724.847656	13108.082031
4723.824219	13059.713867
4722.799805	13268.150391
4721.776367	13248.834961
4720.751953	13270.695313
4719.727539	13241.700195
4718.703125	13498.370117
4717.678711	13474.184570
4716.654297	13266.092773
4715.628906	13433.096680
4714.603516	13314.590820
4713.578125	13447.665039
4712.552734	13425.926758
4711.527344	13537.172852
4710.500977	13206.002930
4709.474609	13684.620117
4708.449219	13590.357422
4707.421875	13686.996094
4706.395508	13720.793945
4705.369141	13715.935547
4704.341797	13631.391602
4703.314453	13563.776367
4702.287109	13515.497070
4701.259766	13850.977539
4700.231445	13525.162109
4699.204102	13761.602539
4698.175781	13792.921875
4697.147461	13809.759766
4696.119141	14043.610352
4695.090820	13980.835938
4694.061523	13949.419922
4693.032227	14060.207031
4692.002930	14062.520508
4690.973633	14045.559570
4689.944336	14112.911133
4688.915039	14180.238281
4687.884766	14372.750977
4686.854492	14139.072266
4685.824219	14131.738281
4684.793945	14247.143555
4683.762695	14071.358398
4682.732422	14249.282227
4681.701172	14258.768555
4680.669922	14246.607422
4679.638672	14171.932617
4678.607422	14505.971680
4677.575195	14299.078125
4676.542969	14503.202148
4675.510742	14178.647461
4674.478516	14560.491211
4673.446289	14545.884766
4672.413086	14442.428711
4671.380859	14528.691406
4670.347656	14554.907227
4669.314453	14420.300781
4668.281250	14530.516602
4667.247070	14707.874023
4666.213867	14554.119141
4665.179688	14793.768555
4664.145508	14738.372070
4663.111328	14649.427734
4662.076172	14689.962891
4661.041992	14795.196289
4660.006836	14881.219727
4658.971680	14825.854492
4657.936523	14954.958984
4656.900391	14700.809570
4655.865234	14667.055664
4654.829102	15258.197266
4653.792969	15107.059570
4652.756836	15250.356445
4651.720703	15106.452148
4650.684570	15139.641602
4649.647461	15050.824219
4648.610352	15150.977539
4647.573242	15035.884766
4646.536133	15150.347656
4645.498047	15200.229492
4644.460938	15185.565430
4643.422852	15285.601563
4642.384766	15192.085938
4641.346680	15425.847656
4640.308594	15272.634766
4639.269531	15372.581055
4638.230469	15183.620117
4637.191406	15309.801758
4636.152344	15469.348633
4635.113281	15278.083984
4634.073242	15373.166016
4633.034180	15265.467773
4631.994141	15372.440430
4630.954102	15548.521484
4629.914063	15450.384766
4628.873047	15588.250977
4627.832031	15530.652344
4626.791992	15535.024414
4625.750977	15629.918945
4624.708984	15608.070313
4623.667969	15538.600586
4622.625977	15783.442383
4621.584961	15635.407227
4620.542969	15742.096680
4619.500000	15843.988281
4618.458008	15805.464844
4617.416016	15769.334961
4616.373047	15806.947266
4615.330078	15796.985352
4614.287109	15927.303711
4613.244141	15736.660156
4612.200195	16028.557617
4611.156250	15887.864258
4610.112305	16008.566406
4609.068359	15989.074219
4608.024414	16055.088867
4606.980469	16061.713867
4605.935547	15999.485352
4604.890625	15939.652344
4603.845703	16121.917969
4602.800781	16194.964844
4601.754883	16249.004883
4600.709961	16030.240234
4599.664063	16141.208008
4598.618164	16249.764648
4597.572266	16130.687500
4596.526367	16251.056641
4595.479492	16371.382813
4594.432617	16027.244141
4593.385742	16254.173828
4592.338867	16222.838867
4591.291992	16468.595703
4590.244141	16370.935547
4589.197266	16637.882813
4588.149414	16580.462891
4587.101563	16269.844727
4586.052734	16598.183594
4585.004883	16443.806641
4583.956055	16388.826172
4582.907227	16589.263672
4581.858398	16680.867188
4580.809570	16625.871094
4579.759766	16514.167969
4578.710938	16669.539063
4577.661133	17065.847656
4576.611328	16613.955078
4575.561523	16606.253906
4574.510742	16662.312500
4573.460938	16553.080078
4572.410156	16493.458984
4571.359375	16955.455078
4570.308594	16900.500000
4569.256836	16937.578125
4568.206055	16684.498047
4567.154297	17193.294922
4566.102539	16831.789063
4565.050781	16793.404297
4563.999023	16957.755859
4562.946289	16700.179688
4561.893555	17031.789063
4560.840820	17210.140625
4559.788086	16874.925781
4558.735352	17008.494141
4557.681641	16852.388672
4556.628906	17110.685547
4555.575195	17237.076172
4554.521484	17057.478516
4553.467773	17082.652344
4552.413086	17216.037109
4551.358398	16944.802734
4550.304688	17195.746094
4549.249023	17220.875000
4548.194336	17184.873047
4547.139648	17132.427734
4546.083984	17072.951172
4545.028320	17248.457031
4543.972656	17360.470703
4542.916992	17228.171875
4541.861328	17570.283203
4540.804688	17236.072266
4539.748047	17322.181641
4538.691406	17206.412109
4537.634766	17388.707031
4536.578125	17540.435547
4535.520508	17096.271484
4534.462891	17463.773438
4533.405273	17380.906250
4532.347656	17431.708984
4531.290039	17670.021484
4530.231445	17587.162109
4529.173828	17466.837891
4528.115234	17494.156250
4527.055664	17594.080078
4525.997070	17850.882813
4524.938477	17730.593750
4523.878906	17713.361328
4522.819336	17831.896484
4521.759766	17915.283203
4520.700195	17689.771484
4519.639648	17808.244141
4518.579102	17917.318359
4517.519531	17909.419922
4516.458008	17777.597656
4515.397461	17818.820313
4514.336914	17768.867188
4513.275391	18106.871094
4512.213867	17732.101563
4511.152344	18324.626953
4510.090820	17963.966797
4509.028320	17897.683594
4507.966797	17749.701172
4506.904297	17900.582031
4505.841797	18014.064453
4504.779297	18034.160156
4503.715820	17916.587891
4502.653320	18132.646484
4501.589844	18138.712891
4500.526367	17841.625000
4499.461914	18057.576172
4498.398438	18019.359375
4497.333984	18272.492188
4496.270508	18152.689453
4495.206055	18235.626953
4494.140625	18348.814453
4493.076172	18035.755859
4492.010742	18288.652344
4490.946289	18439.017578
4489.880859	18363.539063
4488.815430	18274.121094
4487.749023	18189.388672
4486.683594	18446.679688
4485.617188	18247.968750
4484.550781	18530.736328
4483.484375	18527.398438
4482.416992	18454.318359
4481.350586	18139.525391
4480.283203	18542.953125
4479.215820	18644.171875
4478.148438	18703.537109
4477.081055	18567.773438
4476.012695	18406.511719
4474.944336	18735.224609
4473.875977	18762.027344
4472.807617	18756.324219
4471.739258	18950.197266
4470.669922	18610.353516
4469.601563	18437.654297
4468.532227	18900.523438
4467.462891	18630.437500
4466.392578	18796.332031
4465.323242	18871.759766
4464.252930	19025.960938
4463.182617	18654.082031
4462.112305	18935.693359
4461.041992	19043.468750
4459.970703	18866.332031
4458.900391	19043.546875
4457.829102	18922.039063
4456.757813	18946.402344
4455.685547	19072.589844
4454.614258	18932.626953
4453.541992	18697.859375
4452.469727	19110.845703
4451.397461	19123.585938
4450.325195	19201.066406
4449.251953	19102.816406
4448.179688	19249.611328
4447.106445	19153.697266
4446.033203	19092.476563
4444.959961	19142.166016
4443.885742	19228.791016
4442.811523	19361.572266
4441.738281	18965.558594
4440.663086	19426.146484
4439.588867	19339.548828
4438.514648	19303.750000
4437.439453	19150.292969
4436.364258	19306.007813
4435.289063	19431.681641
4434.213867	19361.298828
4433.137695	19466.166016
4432.062500	19363.527344
4430.986328	19502.925781
4429.910156	19278.187500
4428.833984	19493.578125
4427.756836	19480.843750
4426.680664	19873.457031
4425.603516	19734.009766
4424.526367	19712.025391
4423.448242	19600.277344
4422.371094	19746.330078
4421.292969	19715.150391
4420.214844	19787.507813
4419.136719	19685.023438
4418.058594	19860.847656
4416.980469	19861.857422
4415.901367	19899.648438
4414.822266	19735.154297
4413.743164	19754.568359
4412.664063	19764.783203
4411.583984	19832.425781
4410.504883	19711.701172
4409.424805	19940.078125
4408.344727	19931.880859
4407.264648	19928.277344
4406.183594	19816.798828
4405.103516	19707.654297
4404.022461	19965.648438
4402.941406	20186.845703
4401.859375	20123.562500
4400.778320	20243.751953
4399.696289	19960.378906
4398.614258	19984.275391
4397.532227	19982.951172
4396.450195	20045.789063
4395.368164	19503.763672
4394.285156	20189.718750
4393.202148	20094.455078
4392.119141	20154.933594
4391.036133	20261.177734
4389.952148	20284.978516
4388.869141	20027.275391
4387.785156	20261.619141
4386.701172	19969.697266
4385.617188	20359.501953
4384.532227	20310.078125
4383.448242	20288.109375
4382.363281	20293.580078
4381.278320	20278.476563
4380.192383	20098.839844
4379.107422	20309.976563
4378.021484	20358.839844
4376.935547	20288.916016
4375.849609	20223.583984
4374.763672	20391.160156
4373.677734	20510.736328
4372.590820	20226.291016
4371.503906	20234.037109
4370.416992	20529.251953
4369.330078	20555.187500
4368.242188	20284.619141
4367.154297	20497.572266
4366.067383	20420.902344
4364.979492	20476.466797
4363.890625	20632.289063
4362.802734	20475.880859
4361.713867	20627.089844
4360.625000	20338.623047
4359.536133	20321.273438
4358.447266	20561.226563
4357.357422	20363.990234
4356.268555	20508.248047
4355.178711	20711.623047
4354.088867	20375.667969
4352.998047	20576.716797
4351.908203	20511.574219
4350.817383	20710.250000
4349.726563	20590.535156
4348.635742	20402.666016
4347.544922	20835.355469
4346.453125	20415.716797
4345.361328	20634.671875
4344.269531	20737.695313
4343.177734	20695.322266
4342.085938	20821.003906
4340.993164	20671.919922
4339.901367	20661.359375
4338.808594	20362.566406
4337.715820	20749.166016
4336.622070	20783.968750
4335.529297	20784.734375
4334.435547	20792.300781
4333.341797	20441.597656
4332.248047	20759.814453
4331.154297	20839.914063
4330.059570	21092.218750
4328.964844	20947.906250
4327.870117	20878.404297
4326.775391	20808.927734
4325.680664	21115.402344
4324.584961	20864.767578
4323.489258	20833.812500
4322.393555	20888.876953
4321.297852	21020.863281
4320.202148	20890.339844
4319.105469	20927.263672
4318.008789	21136.066406
4316.912109	20869.912109
4315.815430	21026.646484
4314.718750	21038.648438
4313.621094	20964.763672
4312.523438	21031.003906
4311.425781	21196.628906
4310.328125	20953.335938
4309.229492	21012.763672
4308.131836	21076.687500
4307.033203	20871.925781
4305.934570	20917.791016
4304.835938	20959.123047
4303.736328	20946.287109
4302.636719	21098.144531
4301.538086	21170.998047
4300.437500	21191.955078
4299.337891	20996.445313
4298.238281	21163.958984
4297.137695	21078.968750
4296.037109	21005.275391
4294.936523	21260.564453
4293.835938	21056.205078
4292.734375	21336.166016
4291.632813	21235.453125
4290.532227	21087.494141
4289.429688	21347.035156
4288.328125	21066.318359
4287.225586	21280.759766
4286.124023	21481.625000
4285.021484	21081.812500
4283.918945	21221.914063
4282.815430	21227.046875
4281.712891	21252.410156
4280.609375	21363.179688
4279.505859	21186.242188
4278.402344	21314.957031
4277.297852	21261.652344
4276.194336	21419.505859
4275.089844	21325.775391
4273.985352	21418.441406
4272.880859	21183.312500
4271.775391	21603.671875
4270.670898	21563.832031
4269.565430	21290.658203
4268.459961	21638.980469
4267.354492	21372.619141
4266.248047	21810.498047
4265.141602	21124.929688
4264.036133	21298.173828
4262.929688	21670.828125
4261.822266	21214.224609
4260.715820	21461.291016
4259.608398	21260.255859
4258.500977	21460.187500
4257.393555	21357.751953
4256.286133	21785.951172
4255.177734	21435.027344
4254.069336	21543.019531
4252.961914	21277.294922
4251.852539	21539.640625
4250.744141	21267.300781
4249.635742	21538.496094
4248.526367	21228.242188
4247.416992	21727.373047
4246.307617	21374.726563
4245.197266	21480.332031
4244.087891	21541.208984
4242.977539	21485.900391
4241.867188	21584.724609
4240.756836	21281.550781
4239.645508	21697.416016
4238.535156	21461.298828
4237.423828	21622.544922
4236.312500	21783.728516
4235.200195	21846.687500
4234.088867	21679.861328
4232.976563	21517.556641
4231.864258	21527.009766
4230.751953	21768.320313
4229.639648	21886.945313
4228.527344	21956.494141
4227.414063	21698.468750
4226.300781	21714.558594
4225.187500	21690.548828
4224.074219	21697.722656
4222.959961	21526.767578
4221.845703	21545.097656
4220.731445	21574.550781
4219.617188	21454.892578
4218.502930	21953.818359
4217.387695	21564.958984
4216.272461	21756.746094
4215.157227	21590.437500
4214.041992	21864.414063
4212.926758	21426.945313
4211.810547	21536.380859
4210.694336	21650.218750
4209.578125	21584.054688
4208.461914	21604.546875
4207.345703	21638.353516
4206.228516	21827.583984
4205.111328	21717.031250
4203.994141	21750.796875
4202.876953	21755.699219
4201.758789	21336.791016
4200.640625	21769.931641
4199.523438	21468.730469
4198.404297	21761.972656
4197.286133	21585.048828
4196.167969	21530.113281
4195.048828	21805.451172
4193.929688	21666.285156
4192.810547	21666.753906
4191.690430	21509.941406
4190.571289	21486.074219
4189.451172	21491.001953
4188.331055	21828.029297
4187.210938	21615.957031
4186.089844	21519.048828
4184.968750	21601.412109
4183.848633	21690.380859
4182.727539	21721.804688
4181.605469	21605.039063
4180.484375	21718.277344
4179.362305	21621.451172
4178.240234	21798.746094
4177.118164	21476.519531
4175.996094	21675.869141
4174.873047	21581.326172
4173.750000	21500.070313
4172.626953	21518.216797
4171.503906	21582.724609
4170.380859	21558.906250
4169.256836	21501.986328
4168.133789	21220.000000
4167.009766	21452.193359
4165.884766	21540.914063
4164.760742	21241.429688
4163.635742	21316.923828
4162.510742	21570.970703
4161.385742	21505.298828
4160.260742	21318.435547
4159.135742	21422.501953
4158.009766	21502.294922
4156.883789	21441.085938
4155.757813	21377.695313
4154.630859	21829.570313
4153.504883	21537.175781
4152.377930	21385.755859
4151.250977	21480.867188
4150.124023	21628.750000
4148.997070	21206.810547
4147.869141	21088.550781
4146.741211	21407.947266
4145.613281	21186.355469
4144.485352	21292.384766
4143.356445	21514.861328
4142.228516	21398.845703
4141.099609	21555.306641
4139.970703	21314.117188
4138.841797	21119.134766
4137.711914	21247.011719
4136.582031	21324.345703
4135.452148	21258.974609
4134.322266	21208.988281
4133.192383	20972.507813
4132.061523	21356.968750
4130.931641	21206.091797
4129.800781	21189.042969
4128.668945	21196.119141
4127.538086	21113.308594
4126.406250	21225.601563
4125.274414	21090.220703
4124.142578	21014.046875
4123.010742	21422.025391
4121.878906	21212.214844
4120.746094	21168.904297
4119.613281	21140.935547
4118.480469	21191.779297
4117.347656	20923.066406
4116.213867	21345.925781
4115.080078	21219.490234
4113.946289	21112.785156
4112.812500	21073.916016
4111.678711	20818.587891
4110.543945	21149.251953
4109.409180	21145.367188
4108.274414	20929.501953
4107.139648	20956.246094
4106.003906	21085.656250
4104.869141	20854.628906
4103.733398	20986.191406
4102.597656	21036.919922
4101.460938	21146.570313
4100.325195	20863.314453
4099.188477	21138.798828
4098.051758	21121.824219
4096.915039	21179.021484
4095.778320	20913.410156
4094.640625	21201.763672
4093.502930	20574.335938
4092.365234	21215.767578
4091.227539	21168.281250
4090.088867	20924.701172
4088.951172	21016.710938
4087.812500	20901.759766
4086.673828	20771.605469
4085.534180	20859.236328
4084.395508	20746.550781
4083.255859	20951.687500
4082.116211	20658.402344
4080.976563	21218.126953
4079.836914	20935.777344
4078.696289	20873.201172
4077.555664	20904.154297
4076.415039	20961.185547
4075.274414	20785.601563
4074.132813	20827.417969
4072.992188	20801.855469
4071.850586	21041.355469
4070.708984	21059.205078
4069.566406	20820.777344
4068.424805	20601.978516
4067.282227	20895.609375
4066.139648	20718.117188
4064.997070	21033.318359
4063.853516	20723.509766
4062.710938	20706.677734
4061.567383	20852.523438
4060.423828	20701.220703
4059.280273	20799.312500
4058.135742	20795.482422
4056.991211	20743.970703
4055.847656	20785.656250
4054.702148	20887.990234
4053.557617	20613.371094
4052.413086	20849.974609
4051.267578	20757.353516
4050.122070	20588.990234
4048.976563	20403.371094
4047.830078	21057.525391
4046.683594	20705.275391
4045.538086	20448.343750
4044.390625	20669.525391
4043.244141	20499.197266
4042.097656	20618.664063
4040.950195	20584.597656
4039.802734	20386.277344
4038.655273	20350.105469
4037.506836	20484.630859
4036.359375	20230.271484
4035.210938	20630.423828
4034.062500	20654.693359
4032.914063	20551.570313
4031.764648	20491.656250
4030.616211	20580.679688
4029.466797	20658.880859
4028.317383	20488.949219
4027.166992	20256.527344
4026.017578	20640.980469
4024.867188	20456.050781
4023.716797	20422.095703
4022.566406	20592.916016
4021.415039	20446.884766
4020.264648	20294.443359
4019.113281	20458.728516
4017.961914	20069.416016
4016.810547	20403.802734
4015.658203	20466.779297
4014.505859	20316.623047
4013.353516	20482.900391
4012.201172	20324.185547
4011.048828	20131.105469
4009.895508	20303.775391
4008.742188	20194.644531
4007.588867	20068.351563
4006.435547	20204.386719
4005.282227	20196.357422
4004.127930	19799.347656
4002.973633	19733.378906
4001.819336	20260.357422
4000.665039	20252.320313
3999.509766	19975.849609
3998.354492	20092.394531
3997.199219	20069.363281
3996.043945	19711.517578
3994.888672	19963.236328
3993.732422	20073.259766
3992.576172	20071.695313
3991.419922	20108.734375
3990.263672	19864.855469
3989.106445	19893.343750
3987.949219	19994.697266
3986.792969	19913.849609
3985.634766	19903.740234
3984.477539	19874.353516
3983.319336	19862.111328
3982.161133	19828.457031
3981.002930	19841.919922
3979.844727	19776.169922
3978.686523	19659.074219
3977.527344	19961.451172
3976.368164	19540.546875
3975.208984	19654.585938
3974.048828	19544.011719
3972.889648	19439.892578
3971.729492	19692.853516
3970.569336	19616.533203
3969.409180	19429.105469
3968.248047	19384.912109
3967.087891	19528.736328
3965.926758	19448.226563
3964.764648	19510.830078
3963.603516	19861.664063
3962.442383	19313.611328
3961.280273	19342.052734
3960.118164	19255.246094
3958.955078	19415.970703
3957.792969	19213.984375
3956.629883	19191.232422
3955.466797	19168.486328
3954.303711	19164.937500
3953.140625	19125.150391
3951.976563	19283.583984
3950.813477	19280.013672
3949.649414	19406.400391
3948.484375	18998.093750
3947.320313	18958.369141
3946.155273	19101.777344
3944.990234	19157.847656
3943.825195	19160.683594
3942.660156	18974.117188
3941.494141	18923.792969
3940.329102	19056.433594
3939.163086	19167.755859
3937.996094	18966.437500
3936.830078	18769.445313
3935.663086	18761.714844
3934.496094	19038.781250
3933.329102	19005.501953
3932.162109	18798.023438
3930.995117	18764.798828
3929.827148	19130.855469
3928.659180	18649.550781
3927.491211	18941.185547
3926.322266	18697.822266
3925.153320	18893.839844
3923.985352	18905.187500
3922.816406	18558.015625
3921.646484	18630.929688
3920.477539	18602.025391
3919.307617	18509.525391
3918.137695	18798.626953
3916.967773	18606.509766
3915.796875	18660.271484
3914.626953	18550.876953
3913.456055	18765.615234
3912.285156	18397.861328
3911.113281	18352.097656
3909.942383	18672.603516
3908.770508	18631.037109
3907.598633	18111.205078
3906.426758	18327.896484
3905.253906	18034.669922
3904.082031	18401.464844
3902.909180	18406.507813
3901.736328	18377.718750
3900.562500	18230.558594
3899.389648	18174.333984
3898.215820	18103.337891
3897.041992	18277.447266
3895.868164	18274.052734
3894.693359	18179.843750
3893.519531	17984.312500
3892.344727	18223.757813
3891.169922	18140.162109
3889.994141	18124.130859
3888.819336	18074.341797
3887.643555	18153.259766
3886.467773	18035.988281
3885.291992	18116.988281
3884.115234	17894.343750
3882.939453	17998.529297
3881.762695	18292.363281
3880.585938	18170.955078
3879.408203	18184.433594
3878.231445	18109.431641
3877.053711	17975.488281
3875.875977	17953.193359
3874.698242	17901.433594
3873.519531	17984.406250
3872.341797	17616.978516
3871.163086	17992.447266
3869.984375	18062.730469
3868.804688	17689.181641
3867.625977	17641.728516
3866.446289	17825.576172
3865.266602	17731.867188
3864.085938	17793.722656
3862.906250	17798.818359
3861.725586	17675.748047
3860.544922	17735.478516
3859.364258	17524.255859
3858.183594	17796.072266
3857.001953	17563.921875
3855.820313	17575.345703
3854.638672	17624.541016
3853.457031	17533.132813
3852.274414	17659.937500
3851.092773	17430.121094
3849.910156	17607.224609
3848.726563	17329.279297
3847.543945	17384.748047
3846.360352	17509.363281
3845.177734	17353.126953
3843.993164	17345.705078
3842.809570	17447.212891
3841.625977	17402.076172
3840.441406	17109.865234
3839.256836	17297.193359
3838.072266	17457.240234
3836.886719	17156.810547
3835.701172	17251.957031
3834.516602	17311.501953
3833.330078	17149.312500
3832.144531	17204.671875
3830.958008	17201.464844
3829.772461	17240.068359
3828.585938	17322.548828
3827.398438	17290.062500
3826.211914	16996.427734
3825.024414	17030.859375
3823.836914	17050.658203
3822.649414	16943.072266
3821.461914	16954.527344
3820.273438	16859.523438
3819.084961	17196.552734
3817.896484	16917.917969
3816.708008	16737.437500
3815.518555	16913.693359
3814.329102	16950.162109
3813.139648	16836.494141
3811.950195	16702.021484
3810.760742	16803.117188
3809.570313	16754.136719
3808.379883	16817.681641
3807.189453	16668.728516
3805.999023	16657.287109
3804.807617	16720.812500
3803.616211	16696.873047
3802.424805	16774.935547
3801.233398	16703.126953
3800.041992	16631.343750
3798.849609	16723.935547
3797.657227	16606.416016
3796.464844	16557.564453
3795.271484	16307.048828
3794.079102	16545.144531
3792.885742	16504.642578
3791.692383	16501.560547
3790.498047	16390.441406
3789.304688	16453.853516
3788.110352	16454.933594
3786.916016	16387.488281
3785.721680	16268.166992
3784.526367	16561.951172
3783.332031	16396.982422
3782.136719	16248.675781
3780.941406	16152.285156
3779.745117	16074.597656
3778.549805	16100.625977
3777.353516	16039.562500
3776.157227	16208.622070
3774.960938	16006.623047
3773.763672	16169.407227
3772.566406	15774.811523
3771.369141	16113.648438
3770.171875	16077.499023
3768.974609	15801.166016
3767.776367	15640.871094
3766.578125	15904.960938
3765.379883	15841.970703
3764.181641	15768.658203
3762.982422	15740.884766
3761.783203	15857.903320
3760.583984	15670.889648
3759.384766	15841.632813
3758.184570	15509.989258
3756.985352	15496.752930
3755.785156	15580.642578
3754.584961	15488.888672
3753.383789	15523.170898
3752.183594	15557.440430
3750.982422	15709.392578
3749.781250	15343.106445
3748.579102	15408.349609
3747.377930	15529.286133
3746.175781	15693.506836
3744.973633	15226.412109
3743.771484	15351.438477
3742.568359	15655.824219
3741.365234	15444.654297
3740.162109	15400.534180
3738.958984	15183.307617
3737.755859	15390.645508
3736.551758	15367.160156
3735.347656	15329.264648
3734.143555	15138.984375
3732.939453	15018.781250
3731.734375	15131.253906
3730.529297	14988.455078
3729.324219	15006.225586
3728.119141	14991.068359
3726.914063	15288.600586
3725.708008	14915.521484
3724.501953	15040.219727
3723.295898	15012.729492
3722.088867	15014.026367
3720.882813	14916.672852
3719.675781	14652.914063
3718.468750	14722.072266
3717.260742	14945.257813
3716.053711	15006.119141
3714.845703	14949.919922
3713.637695	14813.677734
3712.429688	14878.632813
3711.220703	14689.098633
3710.011719	14805.344727
3708.802734	14644.613281
3707.593750	14516.756836
3706.384766	14628.866211
3705.174805	14572.816406
3703.964844	14518.836914
3702.754883	14649.326172
3701.544922	14738.784180
3700.333984	14582.369141
3699.123047	14546.859375
3697.912109	14382.345703
3696.701172	14551.637695
3695.489258	14524.340820
3694.278320	14435.650391
3693.066406	14592.556641
3691.853516	14465.012695
3690.641602	14439.795898
3689.428711	14457.536133
3688.215820	14309.639648
3687.002930	14284.462891
3685.790039	14230.679688
3684.576172	14287.273438
3683.362305	14180.381836
3682.148438	14198.147461
3680.934570	14077.014648
3679.719727	14162.181641
3678.504883	14341.236328
3677.290039	14097.661133
3676.075195	13886.832031
3674.860352	14165.825195
3673.644531	14006.066406
3672.428711	14036.071289
3671.212891	13800.936523
3669.996094	14063.420898
3668.780273	13895.644531
3667.563477	13939.913086
3666.346680	14081.984375
3665.128906	13934.671875
3663.912109	13693.706055
3662.694336	13701.314453
3661.476563	13849.430664
3660.257813	13842.753906
3659.040039	13758.726563
3657.821289	13784.631836
3656.602539	13853.258789
3655.383789	13671.620117
3654.164063	13723.968750
3652.945313	13701.049805
3651.725586	13761.504883
3650.504883	13754.849609
3649.285156	13662.829102
3648.064453	13684.644531
3646.844727	13730.832031
3645.623047	13474.322266
3644.402344	13632.236328
3643.180664	13605.302734
3641.959961	13417.988281
3640.738281	13452.000000
3639.515625	13386.553711
3638.293945	13282.577148
3637.071289	13349.053711
3635.848633	13531.120117
3634.625977	13382.557617
3633.402344	13359.761719
3632.178711	13422.116211
3630.955078	13512.822266
3629.731445	13390.716797
3628.507813	13268.657227
3627.283203	13148.667969
3626.058594	13316.316406
3624.833984	13360.379883
3623.609375	13011.667969
3622.383789	13169.124023
3621.158203	13166.642578
3619.932617	13200.582031
3618.707031	13141.450195
3617.480469	12918.506836
3616.254883	12934.272461
3615.028320	12822.653320
3613.800781	12981.955078
3612.574219	13015.886719
3611.346680	12823.485352
3610.119141	12808.945313
3608.891602	12850.969727
3607.663086	12846.526367
3606.435547	13009.677734
3605.207031	12843.700195
3603.978516	12788.798828
3602.749023	12824.729492
3601.520508	12957.494141
3600.291016	12854.184570
3599.061523	12619.815430
3597.831055	12607.351563
3596.601563	12919.492188
3595.371094	12671.129883
3594.140625	12608.277344
3592.909180	12452.756836
3591.678711	12663.958008
3590.447266	12530.641602
3589.215820	12566.539063
3587.984375	12664.841797
3586.751953	12467.179688
3585.520508	12603.704102
3584.288086	12546.990234
3583.054688	12516.454102
3581.822266	12566.391602
3580.588867	12441.334961
3579.355469	12356.541016
3578.122070	12382.353516
3576.888672	12148.857422
3575.654297	12484.190430
3574.419922	12333.142578
3573.185547	12364.964844
3571.951172	12451.004883
3570.715820	12292.014648
3569.480469	12307.762695
3568.245117	12427.888672
3567.009766	12297.089844
3565.773438	12055.974609
3564.538086	12168.052734
3563.301758	12181.800781
3562.064453	12211.585938
3560.828125	12135.086914
3559.590820	12192.935547
3558.353516	11946.096680
3557.116211	12144.237305
3555.877930	12097.861328
3554.640625	12079.547852
3553.402344	12019.180664
3552.164063	11844.693359
3550.924805	12214.844727
3549.686523	12094.432617
3548.447266	11878.000977
3547.207031	11909.770508
3545.967773	11843.498047
3544.727539	11971.270508
3543.488281	11889.012695
3542.248047	11904.757813
3541.006836	11840.533203
3539.766602	11930.233398
3538.525391	11754.121094
3537.284180	11805.840820
3536.041992	11741.681641
3534.800781	11749.444336
3533.558594	11795.143555
3532.316406	11750.985352
3531.074219	11684.886719
3529.831055	11435.210938
3528.587891	11544.782227
3527.344727	11839.838867
3526.101563	11478.579102
3524.858398	11554.177734
3523.614258	11490.181641
3522.370117	11386.341797
3521.125977	11657.229492
3519.880859	11563.359375
3518.636719	11288.226563
3517.391602	11459.382813
3516.146484	11403.440430
3514.900391	11472.960938
3513.655273	11538.472656
3512.409180	11414.872070
3511.163086	11353.007813
3509.916016	11255.353516
3508.669922	11402.414063
3507.422852	11201.365234
3506.175781	11318.550781
3504.927734	11230.916016
3503.680664	11346.063477
3502.432617	11286.278320
3501.184570	11377.526367
3499.935547	11144.921875
3498.687500	11186.504883
3497.438477	11162.539063
3496.189453	11349.042969
3494.940430	11166.244141
3493.690430	11209.775391
3492.441406	11118.352539
3491.190430	11175.761719
3489.940430	11108.182617
3488.690430	11115.991211
3487.439453	11147.589844
3486.188477	11153.404297
3484.937500	10919.381836
3483.685547	11248.256836
3482.434570	10727.008789
3481.182617	10978.536133
3479.929688	10962.587891
3478.677734	10960.506836
3477.424805	10964.365234
3476.171875	11041.461914
3474.918945	10896.871094
3473.666016	11033.311523
3472.412109	10971.865234
3471.158203	10762.095703
3469.904297	10841.132813
3468.650391	10785.688477
3467.395508	10667.005859
3466.140625	10872.507813
3464.885742	10718.283203
3463.630859	10793.299805
3462.375000	10694.457031
3461.119141	10753.648438
3459.863281	10627.206055
3458.607422	10708.102539
3457.350586	10633.036133
3456.093750	10559.969727
3454.836914	10573.747070
3453.580078	10757.171875
3452.322266	10638.758789
3451.064453	10725.473633
3449.806641	10502.617188
3448.548828	10411.916016
3447.291016	10528.185547
3446.032227	10362.635742
3444.773438	10467.048828
3443.513672	10356.723633
3442.254883	10575.319336
3440.995117	10415.791016
3439.735352	10364.594727
3438.475586	10366.558594
3437.214844	10287.840820
3435.955078	10378.353516
3434.694336	10413.753906
3433.432617	10425.539063
3432.171875	10299.674805
3430.910156	10211.211914
3429.648438	10195.509766
3428.386719	10384.194336
3427.124023	10407.760742
3425.862305	10146.469727
3424.599609	10150.429688
3423.335938	10185.807617
3422.073242	10207.427734
3420.809570	10172.113281
3419.545898	10130.924805
3418.282227	10217.294922
3417.018555	10287.937500
3415.753906	10107.483398
3414.489258	10166.351563
3413.224609	10125.200195
3411.958984	10048.777344
3410.694336	10084.102539
3409.428711	9941.088867
3408.163086	10117.485352
3406.896484	9925.547852
3405.629883	9925.614258
3404.364258	9839.523438
3403.096680	9935.535156
3401.830078	10080.443359
3400.562500	9910.219727
3399.294922	9974.855469
3398.027344	10029.685547
3396.759766	10049.287109
3395.491211	9828.354492
3394.222656	10066.960938
3392.954102	9930.163086
3391.685547	9803.188477
3390.416016	9865.800781
3389.146484	9877.594727
3387.876953	9895.243164
3386.607422	9674.630859
3385.336914	10010.571289
3384.066406	9594.805664
3382.795898	9840.850586
3381.525391	9776.527344
3380.253906	9778.563477
3378.982422	9774.747070
3377.710938	9501.791016
3376.439453	9663.770508
3375.166992	9782.796875
3373.894531	9808.217773
3372.622070	9556.899414
3371.349609	9662.237305
3370.076172	9590.262695
3368.802734	9666.338867
3367.529297	9555.443359
3366.255859	9684.063477
3364.981445	9271.488281
3363.707031	9503.260742
3362.432617	9590.953125
3361.158203	9458.775391
3359.882813	9567.837891
3358.607422	9400.709961
3357.332031	9379.469727
3356.056641	9609.009766
3354.780273	9599.398438
3353.503906	9496.516602
3352.227539	9541.330078
3350.951172	9549.218750
3349.673828	9454.171875
3348.396484	9409.646484
3347.119141	9262.245117
3345.841797	9357.524414
3344.563477	9415.894531
3343.285156	9450.958984
3342.006836	9421.993164
3340.728516	9276.666992
3339.449219	9360.214844
3338.169922	9360.363281
3336.890625	9447.739258
3335.611328	9180.422852
3334.331055	9250.359375
3333.050781	9376.450195
3331.770508	9146.100586
3330.490234	9274.098633
3329.208984	9220.047852
3327.927734	9189.246094
3326.646484	9092.651367
3325.365234	9137.352539
3324.083008	9303.921875
3322.800781	9120.314453
3321.518555	9163.049805
3320.236328	9163.228516
3318.953125	9134.409180
3317.669922	9306.616211
3316.386719	9074.870117
3315.103516	9107.910156
3313.819336	9208.546875
3312.535156	8917.080078
3311.250977	9085.298828
3309.966797	9253.453125
3308.681641	9114.632813
3307.396484	9178.501953
3306.111328	9041.677734
3304.826172	9032.229492
3303.540039	9209.874023
3302.253906	9024.911133
3300.967773	8894.003906
3299.681641	9048.439453
3298.394531	9087.177734
3297.107422	9060.386719
3295.820313	9106.813477
3294.532227	8879.704102
3293.245117	8993.550781
3291.957031	9070.769531
3290.668945	8988.176758
3289.379883	9151.977539
3288.091797	8984.729492
3286.802734	9623.688477
3285.512695	15610.005859
3284.223633	10660.463867
3282.933594	10656.496094
3281.643555	9635.531250
3280.353516	8984.004883
3279.063477	8970.750000
3277.772461	8901.780273
3276.481445	8903.914063
3275.190430	8936.777344
3273.898438	8971.547852
3272.607422	8810.472656
3271.315430	9012.253906
3270.022461	8937.594727
3268.730469	8768.943359
3267.437500	8707.788086
3266.144531	8836.544922
3264.851563	8900.049805
3263.557617	8710.442383
3262.264648	9030.819336
3260.970703	8781.844727
3259.675781	8669.016602
3258.381836	8567.726563
3257.086914	8776.785156
3255.791992	8832.552734
3254.497070	8767.668945
3253.201172	8771.727539
3251.905273	8773.870117
3250.609375	8666.933594
3249.313477	8724.580078
3248.016602	8937.150391
3246.720703	8730.789063
3245.423828	8809.422852
3244.125977	8819.200195
3242.829102	8595.777344
3241.531250	8676.301758
3240.233398	8739.597656
3238.934570	8787.585938
3237.636719	8761.066406
3236.337891	8746.014648
3235.039063	8771.062500
3233.739258	8836.185547
3232.440430	8620.733398
3231.140625	8605.718750
3229.840820	8667.019531
3228.540039	8730.204102
3227.240234	8612.195313
3225.939453	8566.684570
3224.638672	8664.164063
3223.336914	8586.258789
3222.035156	8538.873047
3220.734375	8428.632813
3219.431641	8581.302734
3218.129883	8362.541016
3216.827148	8402.821289
3215.524414	8504.005859
3214.221680	8580.407227
3212.918945	8319.946289
3211.615234	8375.423828
3210.311523	8476.533203
3209.007813	8455.881836
3207.703125	8648.210938
3206.398438	8395.589844
3205.093750	8306.536133
3203.789063	8327.741211
3202.483398	8309.036133
3201.178711	8463.211914
3199.873047	8281.143555
3198.566406	8516.919922
3197.260742	8281.750000
3195.954102	8380.760742
3194.647461	8362.064453
3193.340820	8314.913086
3192.033203	8356.944336
3190.725586	8298.429688
3189.417969	8340.448242
3188.110352	8346.423828
3186.801758	8318.275391
3185.493164	8394.379883
3184.184570	8301.803711
3182.875000	8290.729492
3181.566406	8400.889648
3180.256836	8262.912109
3178.947266	8208.299805
3177.636719	8060.945801
3176.327148	8195.669922
3175.016602	8419.284180
3173.705078	8217.104492
3172.394531	7990.410156
3171.083008	8210.151367
3169.771484	8265.294922
3168.459961	8256.137695
3167.147461	8112.778320
3165.835938	8149.009277
3164.523438	8139.878418
3163.209961	7972.065430
3161.897461	8163.178711
3160.583984	8069.071777
3159.270508	8144.922852
3157.957031	8037.641113
3156.642578	7977.583008
3155.328125	7996.798828
3154.013672	8044.305176
3152.699219	8086.133789
3151.383789	8009.138672
3150.068359	7905.775879
3148.752930	8092.759277
3147.437500	8138.314453
3146.121094	8197.041992
3144.804688	8099.373535
3143.488281	8005.509766
3142.170898	8037.861816
3140.854492	8070.201172
3139.537109	8083.701660
3138.218750	8078.374512
3136.901367	8009.067383
3135.583008	7968.008301
3134.264648	8017.257324
3132.946289	7923.551270
3131.626953	7865.607910
3130.308594	7922.367188
3128.988281	7943.391113
3127.668945	7953.130371
3126.349609	7919.650879
3125.029297	7852.369141
3123.708984	7982.323730
3122.387695	7990.168945
3121.067383	8022.417480
3119.746094	7827.523438
3118.424805	8019.313477
3117.102539	7860.145996
3115.780273	7879.261230
3114.458984	7896.492676
3113.135742	7823.703125
3111.813477	7854.062500
3110.490234	7867.539063
3109.166992	7779.802734
3107.843750	7956.311035
3106.519531	7688.737305
3105.196289	7810.874023
3103.872070	7796.251953
3102.546875	7689.888672
3101.222656	7680.911621
3099.897461	7887.178223
3098.572266	7749.045898
3097.246094	7839.220703
3095.920898	7856.407715
3094.594727	7830.572754
3093.268555	7795.398438
3091.941406	7769.584961
3090.615234	7766.209961
3089.288086	7710.510742
3087.960938	7839.804688
3086.632813	7621.592773
3085.304688	7683.616699
3083.976563	7723.208008
3082.648438	7770.251465
3081.320313	7707.147949
3079.991211	7780.302734
3078.662109	7834.770020
3077.333008	7745.572266
3076.002930	7704.901855
3074.672852	7934.640625
3073.342773	7748.524414
3072.012695	7868.185059
3070.681641	7736.200195
3069.350586	7578.179199
3068.019531	7882.236816
3066.688477	7690.721191
3065.356445	7869.867188
3064.024414	7680.289063
3062.692383	7872.397461
3061.359375	7759.199707
3060.027344	7606.968750
3058.694336	7704.095703
3057.360352	7730.501465
3056.027344	7691.806641
3054.693359	7684.734863
3053.359375	7794.783203
3052.025391	7655.730469
3050.690430	7585.487305
3049.355469	7645.325684
3048.020508	7718.143066
3046.685547	7620.069824
3045.349609	7696.577148
3044.013672	7795.331543
3042.677734	7582.220215
3041.340820	7560.333984
3040.004883	7753.681152
3038.667969	7627.887695
3037.330078	7717.284180
3035.993164	7663.863770
3034.655273	7543.721680
3033.317383	7653.470703
3031.979492	7666.809082
3030.640625	7589.351074
3029.301758	7517.480469
3027.962891	7601.217773
3026.624023	7546.038086
3025.284180	7642.696777
3023.944336	7544.955078
3022.604492	7600.859863
3021.263672	7403.244629
3019.923828	7668.203125
3018.583008	7489.146973
3017.241211	7565.359375
3015.900391	7560.189941
3014.558594	7464.443359
3013.216797	7498.106445
3011.875000	7627.843750
3010.532227	7393.578125
3009.189453	7650.734863
3007.846680	7529.207031
3006.503906	7572.055176
3005.160156	7613.040039
3003.816406	7511.891602
3002.472656	7549.180664
3001.128906	7429.633789
2999.784180	7535.173828
2998.439453	7448.872070
2997.094727	7556.210449
2995.749023	7488.372070
2994.403320	7507.188477
2993.057617	7601.551758
2991.711914	7504.264160
2990.365234	7372.014648
2989.018555	7451.614258
2987.671875	7455.687012
2986.325195	7292.225586
2984.977539	7482.231934
2983.629883	7390.600098
2982.282227	7444.357422
2980.933594	7391.398926
2979.585938	7336.621094
2978.237305	7625.729980
2976.887695	7456.940430
2975.539063	7451.810547
2974.189453	7452.195313
2972.839844	7379.083008
2971.489258	7366.621582
2970.139648	7396.409180
2968.789063	7512.493164
2967.438477	7419.228516
2966.086914	7388.411133
2964.735352	7509.933594
2963.383789	7295.618652
2962.032227	7472.146973
2960.680664	7353.300781
2959.328125	7348.198242
2957.975586	7293.593262
2956.622070	7343.497559
2955.269531	7358.559570
2953.916016	7373.615234
2952.562500	7163.321777
2951.208008	7334.103027
2949.854492	7261.249023
2948.500000	7171.944824
2947.144531	7144.915527
2945.790039	7174.635254
2944.434570	7266.559570
2943.079102	7184.640137
2941.723633	7300.305664
2940.367188	7318.997070
2939.010742	7237.114258
2937.654297	7264.950684
2936.297852	7364.058594
2934.940430	7417.441895
2933.583008	7191.265625
2932.225586	7250.141602
2930.867188	7164.713379
2929.508789	7170.617188
2928.150391	7262.322754
2926.791992	7240.825195
2925.432617	7047.794922
2924.074219	7232.521484
2922.713867	7103.414063
2921.354492	7083.786621
2919.994141	7144.400391
2918.633789	7308.907715
2917.273438	7188.998535
2915.913086	7205.816895
2914.551758	7229.916504
2913.190430	7128.309082
2911.829102	7272.622070
2910.466797	7243.884766
2909.104492	7355.346680
2907.742188	7160.958496
2906.379883	7208.695313
2905.016602	7285.525879
2903.653320	7118.552734
2902.290039	7202.645508
2900.925781	7213.965332
2899.562500	7199.826660
2898.197266	7152.972656
2896.833008	7247.895996
2895.468750	7013.892090
2894.103516	7125.155273
2892.738281	7209.129395
2891.372070	7071.517578
2890.005859	7111.892578
2888.640625	7168.589355
2887.273438	7366.828125
2885.907227	7127.675293
2884.540039	7131.721680
2883.172852	7037.817383
2881.805664	6962.084473
2880.437500	7223.628906
2879.069336	7242.154297
2877.701172	6983.367188
2876.333008	7039.985840
2874.963867	7136.439941
2873.594727	7185.760254
2872.225586	7182.541016
2870.855469	7061.628418
2869.485352	7129.036133
2868.115234	7095.059082
2866.745117	7077.381836
2865.374023	7193.595703
2864.002930	6951.601563
2862.631836	7093.113281
2861.260742	7111.612305
2859.888672	7054.174805
2858.516602	7112.437988
2857.144531	7136.342773
2855.771484	6992.207520
2854.398438	6920.385742
2853.025391	6915.415527
2851.652344	6877.944824
2850.278320	7086.016113
2848.904297	7028.670410
2847.530273	7048.946777
2846.156250	7000.651855
2844.781250	7082.258789
2843.406250	7073.654297
2842.030273	6985.710449
2840.655273	6971.719238
2839.279297	6914.472168
2837.903320	6927.531738
2836.526367	6904.549805
2835.150391	6935.620117
2833.773438	7029.716309
2832.395508	7156.189453
2831.018555	6890.125000
2829.640625	6949.973145
2828.262695	6964.804688
2826.884766	6968.834473
2825.505859	7026.832031
2824.126953	6984.082520
2822.748047	6914.375488
2821.368164	6914.814941
2819.989258	6942.216797
2818.609375	7082.832520
2817.228516	6867.613281
2815.848633	7022.560059
2814.467773	6994.236816
2813.086914	6897.684082
2811.705078	6793.987305
2810.324219	6792.651367
2808.942383	6986.942871
2807.559570	6949.680664
2806.177734	6811.966797
2804.794922	6900.311523
2803.412109	6954.547363
2802.029297	6890.424805
2800.645508	6912.373535
2799.261719	6830.361328
2797.877930	6868.439453
2796.493164	6962.041016
2795.109375	6808.417480
2793.724609	6808.868652
2792.338867	6900.635254
2790.954102	6766.805176
2789.568359	6838.854980
2788.182617	6731.930664
2786.795898	6934.563477
2785.409180	6731.068848
2784.022461	6735.108887
2782.635742	6751.663086
2781.249023	6759.271973
2779.861328	6700.745605
2778.473633	6679.769043
2777.084961	6791.011230
2775.697266	6902.209961
2774.308594	6722.256348
2772.918945	6717.360840
2771.530273	6805.298828
2770.140625	6664.737305
2768.750977	6702.683594
2767.361328	6763.808594
2765.970703	6589.444824
2764.580078	6682.669922
2763.189453	6659.955078
2761.797852	6770.957031
2760.407227	6610.986816
2759.015625	6704.132813
2757.623047	6635.105957
2756.231445	6735.334961
2754.838867	6668.109375
2753.446289	6575.980469
2752.052734	6583.585449
2750.659180	6678.404297
2749.265625	6579.208496
2747.872070	6627.729980
2746.478516	6553.487305
2745.083984	6621.557617
2743.689453	6531.340820
2742.293945	6535.385742
2740.898438	6518.098145
2739.502930	6614.555176
2738.107422	6510.195313
2736.711914	6494.698730
2735.315430	6573.340820
2733.918945	6499.237793
2732.521484	6661.291016
2731.125000	6411.469238
2729.727539	6635.589355
2728.329102	6424.906250
2726.931641	6590.393066
2725.533203	6596.186035
2724.134766	6651.628418
2722.736328	6641.449707
2721.336914	6487.694824
2719.937500	6475.779785
2718.538086	6455.009277
2717.137695	6600.771973
2715.737305	6417.034668
2714.336914	6550.350586
2712.936523	6501.252441
2711.535156	6494.657227
2710.133789	6385.416016
2708.732422	6479.703613
2707.331055	6593.414063
2705.928711	6602.722656
2704.526367	6410.430664
2703.124023	6481.652832
2701.720703	6473.300293
2700.317383	6392.489746
2698.914063	6559.089844
2697.509766	6517.159668
2696.106445	6445.218750
2694.702148	6339.752930
2693.296875	6511.526855
2691.892578	6517.299805
2690.487305	6491.301758
2689.082031	6355.911133
2687.675781	6342.304199
2686.269531	6404.547363
2684.863281	6429.732422
2683.457031	6338.539063
2682.049805	6469.494629
2680.642578	6466.451172
2679.235352	6357.682617
2677.828125	6428.655762
2676.419922	6478.463867
2675.011719	6362.711914
2673.603516	6453.008789
2672.194336	6328.505371
2670.785156	6265.651367
2669.375977	6359.432129
2667.965820	6407.433105
2666.556641	6268.964355
2665.146484	6404.894531
2663.735352	6357.910156
2662.325195	6314.460449
2660.914063	6205.997070
2659.502930	6311.958008
2658.090820	6354.628906
2656.678711	6190.011719
2655.266602	6209.858887
2653.854492	6324.512695
2652.441406	6209.152344
2651.029297	6250.044434
2649.615234	6224.238281
2648.202148	6277.391602
2646.788086	6276.146973
2645.374023	6304.715820
2643.959961	6266.643555
2642.544922	6303.967773
2641.129883	6209.824219
2639.714844	6299.714355
2638.298828	6221.376465
2636.883789	6297.214844
2635.467773	6334.494141
2634.050781	6266.700195
2632.634766	6209.437012
2631.217773	6244.959961
2629.799805	6297.968262
2628.382813	6170.748535
2626.964844	6150.282227
2625.546875	6157.805664
2624.128906	6147.840332
2622.709961	6024.246582
2621.291016	6173.364258
2619.872070	6130.198242
2618.452148	6118.498047
2617.032227	6157.458984
2615.612305	6061.927734
2614.192383	6039.770020
2612.771484	5984.451660
2611.350586	6159.549316
2609.929688	6088.522949
2608.508789	5968.672363
2607.086914	6126.223633
2605.665039	6133.726074
2604.242188	6102.864746
2602.819336	6112.111328
2601.396484	6022.004395
2599.973633	6132.335938
2598.550781	5946.434082
2597.126953	5941.767578
2595.703125	6036.374023
2594.278320	5956.817383
2592.853516	5908.628418
2591.428711	5999.702637
2590.003906	6001.989746
2588.578125	5974.697754
2587.153320	5945.677246
2585.726563	5869.709961
2584.300781	5955.483398
2582.874023	5923.005371
2581.447266	6010.471680
2580.020508	5795.527832
2578.592773	5834.335449
2577.165039	5831.437012
2575.737305	5873.694824
2574.308594	5889.889648
2572.880859	5860.940430
2571.451172	5915.316406
2570.022461	5761.425781
2568.592773	5906.020508
2567.163086	5904.844727
2565.733398	5874.185059
2564.303711	5800.187500
2562.873047	5809.434082
2561.442383	5886.275391
2560.010742	5902.432129
2558.579102	5859.673828
2557.147461	5797.876953
2555.715820	5696.270508
2554.284180	5797.298340
2552.851563	5792.680176
2551.417969	5808.834473
2549.985352	5736.725098
2548.551758	5782.296387
2547.118164	5784.603516
2545.684570	5600.123047
2544.250000	5609.381836
2542.815430	5648.025879
2541.380859	5662.455566
2539.945313	5835.866699
2538.510742	5703.392090
2537.075195	5607.245605
2535.638672	5692.481445
2534.202148	5788.043457
2532.765625	5565.909668
2531.329102	5671.814941
2529.892578	5700.020020
2528.455078	5605.712891
2527.017578	5582.168945
2525.579102	5631.070801
2524.140625	5621.325195
2522.702148	5608.135254
2521.263672	5634.594238
2519.824219	5628.299316
2518.384766	5603.054199
2516.945313	5536.476074
2515.505859	5597.372559
2514.065430	5575.591797
2512.625000	5602.023438
2511.183594	5568.201172
2509.743164	5491.369629
2508.301758	5612.431641
2506.859375	5570.025391
2505.417969	5457.121582
2503.975586	5550.604980
2502.533203	5633.735352
2501.089844	5577.606934
2499.646484	5471.664551
2498.203125	5369.200684
2496.759766	5508.987305
2495.315430	5540.517578
2493.871094	5556.581543
2492.426758	5512.551270
2490.982422	5490.852051
2489.537109	5457.148438
2488.091797	5469.783203
2486.645508	5461.827637
2485.200195	5520.762695
2483.752930	5439.066895
2482.306641	5456.836914
2480.860352	5383.756348
2479.413086	5427.234863
2477.964844	5419.295898
2476.517578	5373.673828
2475.069336	5447.955078
2473.621094	5400.632813
2472.172852	5435.503418
2470.723633	5386.489746
2469.274414	5397.390625
2467.825195	5435.662109
2466.375000	5453.390625
2464.924805	5402.701172
2463.474609	5328.093262
2462.024414	5366.346680
2460.573242	5324.250488
2459.122070	5379.577637
2457.669922	5376.791504
2456.218750	5346.675293
2454.766602	5277.289551
2453.314453	5276.232422
2451.861328	5256.396484
2450.408203	5361.167480
2448.955078	5274.768555
2447.501953	5347.076172
2446.047852	5299.947754
2444.593750	5297.180176
2443.138672	5280.771973
2441.684570	5180.836426
2440.229492	5125.255859
2438.774414	5269.076660
2437.318359	5182.832520
2435.862305	5215.861328
2434.406250	5110.928223
2432.950195	5183.120605
2431.493164	5156.545410
2430.036133	5123.172363
2428.579102	5168.090820
2427.121094	5189.171875
2425.663086	5218.749512
2424.205078	5127.565918
2422.746094	5163.944824
2421.287109	5161.208496
2419.828125	5114.282227
2418.369141	5157.437988
2416.909180	5069.754883
2415.449219	5112.902344
2413.989258	5020.167969
2412.528320	5149.902832
2411.067383	5074.173828
2409.606445	4962.832031
2408.144531	5036.500488
2406.683594	4965.929199
2405.220703	5095.543457
2403.757813	5058.905762
2402.296875	5007.022461
2400.833984	4980.588379
2399.369141	4881.284180
2397.906250	5017.562012
2396.443359	5040.272949
2394.978516	4985.056152
2393.513672	4999.296387
2392.048828	4881.461914
2390.583984	4995.594238
2389.119141	4933.660156
2387.654297	4927.591797
2386.187500	4931.676758
2384.720703	4769.994141
2383.255859	4973.664063
2381.789063	4889.814453
2380.320313	4907.426270
2378.853516	4700.244141
2377.386719	4822.653320
2375.917969	4816.614746
2374.449219	4770.040039
2372.982422	4939.646484
2371.513672	4801.889648
2370.042969	4730.023926
2368.574219	4813.459961
2367.105469	4844.552246
2365.634766	4723.795410
2364.164063	4852.722656
2362.693359	4789.349609
2361.222656	4746.234375
2359.751953	4789.107422
2358.279297	4717.357910
2356.808594	4775.384277
2355.335938	4752.521973
2353.863281	4727.983887
2352.390625	4720.295898
2350.917969	4848.988281
2349.445313	4701.561523
2347.970703	4722.493164
2346.498047	4623.947754
2345.023438	4695.356445
2343.548828	4610.311035
2342.074219	4680.011230
2340.599609	4578.189941
2339.123047	4800.835938
2337.648438	4682.224609
2336.171875	4672.879395
2334.695313	4581.220703
2333.218750	4622.287109
2331.742188	4596.166504
2330.265625	4598.597656
2328.787109	4668.171387
2327.310547	4600.100098
2325.832031	4716.626953
2324.353516	4578.114258
2322.875000	4692.920410
2321.396484	4633.282227
2319.917969	4628.994629
2318.437500	4599.564941
2316.957031	4573.499023
2315.478516	4547.442871
2313.998047	4528.098145
2312.517578	4594.179199
2311.035156	4594.926758
2309.554688	4585.628418
2308.072266	4522.770020
2306.591797	4503.448242
2305.109375	4460.709961
2303.626953	4476.537598
2302.142578	4463.926270
2300.660156	4489.779785
2299.177734	4470.482910
2297.693359	4509.696289
2296.208984	4450.294922
2294.724609	4489.495605
2293.240234	4396.712402
2291.755859	4432.567383
2290.269531	4403.285156
2288.785156	4397.387207
2287.298828	4401.506348
2285.812500	4365.572266
2284.326172	4343.000000
2282.839844	4387.161621
2281.353516	4379.603516
2279.865234	4388.723145
2278.376953	4281.141113
2276.890625	4351.946777
2275.402344	4402.726563
2273.914063	4291.873535
2272.423828	4367.630859
2270.935547	4201.870605
2269.445313	4305.921387
2267.957031	4418.253906
2266.466797	4285.871094
2264.976563	4309.965332
2263.484375	4270.827637
2261.994141	4246.675781
2260.503906	4220.870605
2259.011719	4196.738281
2257.519531	4162.641113
2256.027344	4131.881836
2254.535156	4194.190918
2253.042969	4188.357910
2251.548828	4129.373047
2250.056641	4229.840820
2248.562500	4255.550781
2247.068359	4189.947266
2245.574219	4160.884277
2244.080078	4211.481934
2242.583984	4112.746094
2241.089844	4231.339355
2239.593750	4069.621094
2238.097656	4194.807129
2236.601563	4043.107178
2235.105469	4131.785156
2233.609375	4116.035156
2232.113281	4113.544434
2230.615234	4207.122559
2229.117188	4068.821045
2227.619141	4101.109863
2226.121094	4045.652588
2224.623047	4082.897461
2223.125000	4144.947266
2221.625000	4056.427246
2220.125000	3972.905029
2218.626953	4011.787354
2217.126953	4057.267090
2215.625000	3952.305664
2214.125000	4068.842773
2212.625000	3980.444580
2211.123047	3976.333008
2209.621094	4031.682617
2208.119141	3968.114746
2206.617188	3978.866455
2205.115234	3916.985352
2203.611328	3940.945068
2202.109375	3912.095703
2200.605469	3983.885986
2199.101563	3923.702393
2197.597656	3950.938477
2196.093750	3994.649658
2194.589844	4011.969971
2193.083984	3866.134277
2191.580078	3918.073486
2190.074219	3897.510254
2188.568359	4021.888184
2187.062500	3853.114990
2185.554688	3914.891846
2184.048828	3846.612061
2182.541016	3842.539551
2181.035156	3961.865234
2179.527344	3918.291260
2178.019531	3859.933350
2176.509766	3872.303223
2175.001953	3914.259277
2173.494141	3722.803711
2171.984375	3823.930908
2170.474609	3760.721191
2168.964844	3709.035645
2167.455078	3795.322754
2165.943359	3832.315918
2164.433594	3877.502197
2162.921875	3733.921875
2161.412109	3788.954834
2159.900391	3793.106201
2158.386719	3769.370605
2156.875000	3873.560791
2155.363281	3759.639160
2153.849609	3703.138916
2152.335938	3731.886475
2150.824219	3775.369873
2149.310547	3777.878174
2147.794922	3868.834473
2146.281250	3684.634033
2144.765625	3690.433350
2143.251953	3697.866943
2141.736328	3728.209717
2140.220703	3715.996826
2138.705078	3842.844238
2137.187500	3716.119385
2135.671875	3723.539063
2134.154297	3734.225586
2132.636719	3635.387939
2131.121094	3668.967529
2129.601563	3612.665771
2128.083984	3736.084961
2126.566406	3647.126465
2125.046875	3664.345703
2123.527344	3591.763916
2122.007813	3582.870605
2120.488281	3609.883545
2118.968750	3625.464111
2117.449219	3676.926514
2115.927734	3645.188721
2114.408203	3597.157471
2112.886719	3576.860840
2111.365234	3574.501465
2109.843750	3521.624512
2108.320313	3568.156006
2106.798828	3595.120850
2105.275391	3535.756836
2103.751953	3565.973389
2102.228516	3527.802734
2100.705078	3504.296143
2099.181641	3501.954102
2097.656250	3468.700195
2096.132813	3565.590576
2094.607422	3425.000732
2093.082031	3455.195313
2091.556641	3513.013184
2090.031250	3419.653564
2088.503906	3461.204834
2086.978516	3428.005371
2085.451172	3427.305664
2083.923828	3515.925049
2082.396484	3516.830811
2080.869141	3379.753662
2079.341797	3491.049561
2077.812500	3459.506104
2076.283203	3421.486084
2074.755859	3446.739014
2073.226563	3408.736816
2071.697266	3416.146973
2070.166016	3394.375977
2068.636719	3349.924316
2067.105469	3415.673584
2065.574219	3321.015137
2064.042969	3451.530273
2062.511719	3313.180420
2060.980469	3383.739746
2059.447266	3358.767822
2057.916016	3437.380371
2056.382813	3360.630615
2054.849609	3319.501221
2053.316406	3325.291748
2051.783203	3301.973389
2050.248047	3251.180420
2048.714844	3299.006348
2047.179688	3330.652344
2045.644531	3271.805664
2044.109375	3267.905518
2042.574219	3238.166016
2041.039063	3287.559570
2039.501953	3285.272461
2037.964844	3187.756836
2036.429688	3251.653320
2034.892578	3315.523682
2033.353516	3201.930420
2031.816406	3223.853271
2030.279297	3210.293945
2028.740234	3222.533203
2027.201172	3199.309082
2025.662109	3164.814209
2024.123047	3196.387695
2022.583984	3198.954590
2021.042969	3153.207520
2019.503906	3115.529541
2017.962891	3158.354736
2016.421875	3120.690674
2014.880859	3158.669922
2013.337891	3125.847168
2011.796875	3121.989746
2010.253906	3211.404297
2008.712891	3069.260986
2007.169922	3083.098877
2005.626953	3085.681152
2004.082031	3004.708740
2002.539063	3098.874268
2000.994141	3123.937012
1999.451172	3075.122314
1997.906250	3042.382080
1996.361328	2942.238770
1994.816406	3090.883789
1993.269531	3010.025146
1991.724609	3081.594971
1990.177734	3111.435547
1988.630859	3017.793945
1987.083984	2969.079590
1985.537109	3063.038086
1983.990234	3020.744141
1982.441406	3036.145996
1980.892578	3078.773193
1979.343750	3028.493652
1977.794922	2888.567383
1976.246094	3000.035645
1974.697266	2893.783691
1973.146484	2969.999756
1971.597656	3023.786133
1970.046875	2938.388672
1968.496094	2929.788818
1966.945313	2983.549805
1965.394531	2909.402588
1963.841797	2872.045166
1962.289063	2951.351074
1960.738281	2971.513184
1959.185547	3001.250732
1957.632813	2906.415039
1956.078125	2931.363281
1954.525391	2798.270020
1952.970703	2855.148926
1951.416016	2870.518311
1949.863281	2855.570557
1948.306641	2925.161865
1946.751953	2841.639404
1945.197266	2920.770264
1943.640625	2883.508301
1942.083984	2862.197754
1940.527344	2820.182617
1938.970703	2881.729492
1937.414063	2807.873779
1935.857422	2821.627197
1934.298828	2797.166504
1932.740234	2825.241455
1931.181641	2883.540283
1929.623047	2849.535156
1928.064453	2829.860352
1926.505859	2824.506836
1924.945313	2750.783203
1923.384766	2775.652344
1921.826172	2813.226563
1920.263672	2879.387939
1918.703125	2743.752441
1917.142578	2760.659912
1915.580078	2782.324463
1914.019531	2754.759766
1912.457031	2755.779785
1910.894531	2872.657715
1909.330078	2753.057617
1907.767578	2766.768555
1906.203125	2734.476074
1904.640625	2683.167236
1903.076172	2823.720947
1901.511719	2674.135742
1899.947266	2692.602295
1898.380859	2666.695557
1896.816406	2726.343994
1895.250000	2678.266846
1893.683594	2625.458984
1892.117188	2710.409424
1890.550781	2589.553467
1888.984375	2660.233398
1887.416016	2683.417725
1885.847656	2657.554199
1884.281250	2732.920654
1882.712891	2588.465332
1881.142578	2698.594238
1879.574219	2576.333496
1878.003906	2657.974609
1876.435547	2644.786865
1874.865234	2541.567383
1873.294922	2616.847656
1871.724609	2617.886475
1870.152344	2596.824219
1868.582031	2602.601318
1867.009766	2581.550537
1865.437500	2593.638672
1863.865234	2582.061768
1862.292969	2587.836670
1860.720703	2585.725586
1859.146484	2594.649414
1857.574219	2583.081543
1856.000000	2606.183105
1854.425781	2471.739258
1852.851563	2425.552734
1851.275391	2565.200439
1849.701172	2487.525635
1848.125000	2579.881104
1846.548828	2541.578369
1844.972656	2468.676270
1843.396484	2496.481445
1841.820313	2491.247314
1840.242188	2511.173828
1838.664063	2493.361572
1837.087891	2461.410400
1835.509766	2453.043945
1833.929688	2466.677002
1832.351563	2569.840088
1830.773438	2405.978516
1829.193359	2548.364990
1827.613281	2496.033447
1826.033203	2391.929688
1824.453125	2389.865479
1822.871094	2367.406982
1821.291016	2371.622803
1819.708984	2407.200684
1818.126953	2400.430908
1816.544922	2418.744873
1814.962891	2474.664795
1813.380859	2398.940674
1811.796875	2454.841064
1810.214844	2427.706543
1808.630859	2416.242188
1807.046875	2425.135498
1805.460938	2407.415039
1803.876953	2494.554443
1802.292969	2420.499756
1800.707031	2391.840576
1799.121094	2310.017578
1797.535156	2367.394775
1795.949219	2346.580566
1794.361328	2347.657471
1792.775391	2336.232178
1791.187500	2302.937988
1789.599609	2294.650391
1788.011719	2300.421875
1786.423828	2345.225586
1784.835938	2341.617188
1783.246094	2341.131836
1781.656250	2307.877197
1780.066406	2344.841309
1778.476563	2317.838623
1776.886719	2345.428223
1775.296875	2330.909668
1773.705078	2274.308838
1772.113281	2300.331299
1770.523438	2293.621338
1768.929688	2308.723877
1767.337891	2298.899902
1765.746094	2307.765869
1764.152344	2311.957520
1762.558594	2306.808105
1760.966797	2282.985840
1759.371094	2347.859863
1757.777344	2333.372314
1756.183594	2253.569824
1754.587891	2299.749756
1752.992188	2216.877930
1751.396484	2305.011963
1749.800781	2327.842773
1748.205078	2229.479736
1746.609375	2319.109375
1745.011719	2253.401611
1743.414063	2215.669189
1741.816406	2249.360596
1740.218750	2227.164795
1738.621094	2180.150879
1737.021484	2081.960449
1735.423828	2155.978760
1733.824219	2209.806641
1732.224609	2147.330566
1730.625000	2156.184570
1729.023438	2203.779297
1727.423828	2170.782715
1725.822266	2184.273438
1724.220703	2124.964600
1722.619141	2147.750000
1721.017578	2119.436279
1719.416016	2196.387451
1717.812500	2146.409912
1716.210938	2173.812988
1714.607422	2096.016846
1713.003906	2155.896484
1711.400391	2175.548828
1709.794922	2148.815674
1708.191406	2241.103760
1706.585938	2022.754639
1704.980469	2098.035889
1703.375000	2037.358765
1701.769531	2112.605469
1700.164063	2051.950439
1698.556641	2091.658203
1696.949219	2041.835938
1695.341797	2050.668701
1693.734375	2113.492188
1692.126953	2076.034912
1690.519531	2081.770752
1688.910156	2112.171631
1687.300781	2062.406494
1685.691406	2098.962891
1684.082031	2056.924805
1682.472656	2073.441162
1680.861328	1980.601440
1679.251953	2063.338135
1677.640625	2045.973633
1676.029297	2070.173828
1674.417969	2037.426514
1672.806641	2038.540161
1671.193359	2090.414063
1669.580078	2040.765869
1667.968750	2081.854492
1666.355469	2044.526489
1664.740234	2053.321533
1663.126953	2032.917480
1661.513672	2015.594360
1659.898438	2032.069336
1658.283203	1987.111938
1656.667969	2015.868286
1655.052734	2043.077515
1653.435547	2140.870361
1651.820313	2074.446289
1650.203125	2043.332520
1648.585938	1906.405518
1646.968750	2021.011963
1645.351563	2071.181396
1643.732422	2058.487061
1642.115234	2067.251709
1640.496094	2036.177734
1638.876953	2006.648438
1637.257813	1983.257202
1635.638672	2090.023682
1634.017578	1983.959595
1632.398438	2069.253662
1630.777344	2012.204224
1629.156250	2036.261841
1627.535156	2040.424927
1625.912109	2101.167969
1624.291016	2076.266113
1622.667969	2089.589355
1621.044922	2086.096191
1619.421875	2143.722412
1617.798828	2074.530518
1616.175781	2084.787842
1614.550781	2117.945801
1612.927734	2067.122559
1611.302734	2095.691162
1609.677734	2076.940186
1608.050781	2044.465698
1606.425781	2069.969727
1604.798828	2104.613770
1603.173828	2101.123779
1601.546875	2146.417480
1599.919922	2083.479248
1598.291016	2037.328979
1596.664063	2042.996460
1595.035156	2133.958984
1593.406250	2045.187012
1591.777344	2101.092529
1590.148438	1980.397827
1588.519531	2077.384277
1586.888672	1988.697998
1585.259766	2003.494019
1583.628906	2025.888550
1581.998047	2080.206543
1580.367188	2090.412842
1578.734375	2009.415894
1577.103516	2024.191528
1575.470703	1993.380493
1573.837891	2015.748169
1572.205078	2032.031616
1570.572266	2014.903442
1568.937500	2032.697998
1567.304688	1994.328125
1565.669922	1987.840332
1564.035156	1999.560425
1562.400391	1880.830933
1560.765625	1960.810059
1559.128906	1930.075562
1557.492188	2002.431396
1555.857422	1938.359253
1554.220703	1965.226440
1552.582031	1896.644165
1550.945313	1958.343750
1549.308594	1879.191650
1547.669922	1943.896729
1546.031250	1943.488770
1544.392578	1890.115356
1542.753906	1945.699097
1541.113281	1892.347412
1539.474609	1925.221802
1537.833984	1879.456665
1536.193359	1909.296509
1534.552734	1837.859863
1532.910156	1845.029419
1531.269531	1859.749634
1529.626953	1838.212769
1527.986328	1845.377319
1526.343750	1813.283691
1524.699219	1817.431274
1523.056641	1812.521973
1521.412109	1778.946167
1519.769531	1822.320190
1518.125000	1764.624634
1516.480469	1788.380371
1514.835938	1781.974121
1513.189453	1835.861572
1511.544922	1791.773804
1509.898438	1821.530029
1508.251953	1729.261230
1506.605469	1771.065918
1504.957031	1757.142212
1503.310547	1711.611450
1501.662109	1774.463989
1500.013672	1777.100342
1498.365234	1769.204346
1496.716797	1723.708984
1495.068359	1720.338745
1493.417969	1704.942017
1491.769531	1772.225464
1490.119141	1797.400879
1488.468750	1754.951904
1486.816406	1726.040527
1485.166016	1688.129883
1483.513672	1698.285522
1481.861328	1729.454590
1480.208984	1741.098022
1478.556641	1703.215698
1476.904297	1714.859497
1475.250000	1747.498413
1473.597656	1675.145630
1471.943359	1713.776367
1470.289063	1690.929565
1468.634766	1719.049316
1466.978516	1696.210938
1465.324219	1716.826904
1463.667969	1640.078003
1462.011719	1696.636353
1460.355469	1645.375488
1458.699219	1686.940308
1457.041016	1719.508301
1455.382813	1731.115479
1453.726563	1670.914795
1452.068359	1716.925415
1450.408203	1667.219727
1448.750000	1702.746948
1447.089844	1694.914673
1445.431641	1655.704956
1443.771484	1733.043823
1442.111328	1649.031738
1440.451172	1708.418823
1438.789063	1645.349976
1437.126953	1650.973755
1435.466797	1647.640625
1433.804688	1706.977417
1432.142578	1673.797607
1430.478516	1671.952881
1428.816406	1656.688232
1427.152344	1625.030640
1425.488281	1673.875366
1423.824219	1618.383667
1422.160156	1637.410767
1420.494141	1650.471313
1418.830078	1662.036987
1417.164063	1666.152832
1415.498047	1661.334961
1413.832031	1613.357300
1412.166016	1633.848755
1410.498047	1643.917603
1408.830078	1633.158447
1407.164063	1619.429688
1405.494141	1622.060913
1403.826172	1602.394287
1402.158203	1545.582397
1400.488281	1573.486328
1398.818359	1589.494263
1397.150391	1601.039795
1395.478516	1575.458374
1393.808594	1555.825806
1392.138672	1574.792114
1390.466797	1580.394775
1388.794922	1602.314941
1387.123047	1587.142944
1385.451172	1524.521240
1383.777344	1558.300537
1382.105469	1586.135864
1380.431641	1585.800171
1378.757813	1588.428101
1377.083984	1594.017700
1375.410156	1574.425781
1373.734375	1568.169434
1372.060547	1572.278931
1370.384766	1640.034058
1368.708984	1581.972290
1367.033203	1608.269165
1365.355469	1542.842285
1363.679688	1532.163086
1362.001953	1582.111328
1360.324219	1559.601807
1358.646484	1494.240234
1356.968750	1505.744995
1355.289063	1529.063721
1353.609375	1509.538208
1351.931641	1556.473633
1350.250000	1538.426880
1348.570313	1521.863647
1346.890625	1524.492676
1345.208984	1494.660034
1343.529297	1494.343140
1341.847656	1479.277832
1340.164063	1498.133179
1338.482422	1468.330933
1336.800781	1491.602295
1335.117188	1448.551514
1333.433594	1436.457886
1331.750000	1477.396606
1330.066406	1466.774536
1328.382813	1450.267456
1326.697266	1451.431885
1325.011719	1451.123901
1323.326172	1474.358643
1321.640625	1491.698975
1319.955078	1434.021484
1318.267578	1494.006836
1316.582031	1462.816162
1314.894531	1443.397461
1313.207031	1393.126587
1311.517578	1478.046265
1309.830078	1373.439087
1308.140625	1421.611450
1306.453125	1456.548706
1304.763672	1398.987915
1303.072266	1391.352417
1301.382813	1411.599854
1299.693359	1478.784180
1298.001953	1440.334839
1296.310547	1369.640503
1294.619141	1364.951050
1292.927734	1436.485229
1291.234375	1414.197632
1289.542969	1381.663086
1287.849609	1384.299072
1286.156250	1405.973145
1284.462891	1325.140747
1282.767578	1323.395142
1281.074219	1383.122192
1279.378906	1384.291382
1277.683594	1370.829956
1275.988281	1383.702515
1274.292969	1343.924072
1272.595703	1390.424194
1270.900391	1325.811279
1269.203125	1362.065186
1267.505859	1386.614624
1265.808594	1343.955688
1264.109375	1377.261475
1262.412109	1303.958252
1260.712891	1292.001587
1259.013672	1306.322388
1257.314453	1304.584961
1255.613281	1364.124390
1253.914063	1355.082153
1252.212891	1343.126831
1250.511719	1335.550659
1248.810547	1329.435303
1247.109375	1339.354004
1245.408203	1312.841064
1243.705078	1325.672363
1242.001953	1271.500488
1240.298828	1274.141846
1238.595703	1301.531494
1236.892578	1282.332031
1235.187500	1309.708130
1233.482422	1306.519165
1231.777344	1259.693115
1230.072266	1265.241699
1228.367188	1279.511841
1226.662109	1328.664185
1224.955078	1238.271851
1223.248047	1293.224121
1221.541016	1231.932739
1219.833984	1272.338379
1218.125000	1292.396729
1216.417969	1310.994751
1214.708984	1206.206177
1213.000000	1282.862549
1211.291016	1237.611084
1209.580078	1243.149292
1207.871094	1235.632690
1206.160156	1204.919678
1204.449219	1245.252808
1202.738281	1221.797485
1201.027344	1178.065552
1199.314453	1218.378296
1197.603516	1223.911865
1195.890625	1241.027710
1194.177734	1172.716187
1192.464844	1185.493164
1190.750000	1230.102417
1189.037109	1206.689697
1187.322266	1181.840332
1185.607422	1178.695313
1183.892578	1150.970581
1182.177734	1217.223755
1180.460938	1188.057129
1178.744141	1169.018066
1177.027344	1183.215210
1175.310547	1211.850220
1173.593750	1215.923462
1171.876953	1176.681396
1170.158203	1206.742676
1168.439453	1155.973877
1166.720703	1173.040894
1165.001953	1181.445313
1163.281250	1152.347900
1161.562500	1152.101318
1159.841797	1150.413208
1158.121094	1167.462891
1156.400391	1154.244019
1154.677734	1164.081909
1152.957031	1136.465454
1151.234375	1130.461792
1149.511719	1170.533447
1147.789063	1098.309814
1146.066406	1103.831299
1144.341797	1129.494141
1142.619141	1130.690796
1140.894531	1072.919556
1139.169922	1150.337524
1137.445313	1124.214111
1135.718750	1111.037598
1133.994141	1128.043579
1132.267578	1086.137817
1130.541016	1087.341553
1128.814453	1092.852783
1127.085938	1085.439819
1125.359375	1121.093750
1123.630859	1089.280029
1121.902344	1060.349731
1120.173828	1126.111084
1118.443359	1059.895142
1116.714844	1075.441040
1114.984375	1045.104614
1113.253906	1054.913574
1111.523438	1056.120361
1109.792969	1063.057373
1108.060547	1064.261719
1106.330078	1075.489990
1104.597656	1091.008789
1102.865234	1085.048828
1101.132813	1056.192993
1099.398438	1034.503540
1097.666016	1001.379089
1095.931641	1099.850342
1094.197266	1056.716431
1092.462891	1035.045288
1090.726563	1031.964478
1088.992188	1064.610107
1087.255859	1044.379761
1085.519531	1052.725830
1083.783203	1002.516724
1082.046875	1030.857056
1080.308594	1046.337769
1078.570313	1041.831543
1076.833984	1061.583740
1075.093750	1045.663574
1073.355469	962.716614
1071.617188	1022.399292
1069.876953	1063.522949
1068.136719	993.453308
1066.396484	1006.065002
1064.656250	998.725159
1062.914063	974.295532
1061.173828	986.902954
1059.431641	959.638672
1057.689453	1017.795410
1055.947266	1021.846069
1054.203125	1054.352539
1052.460938	994.377747
1050.716797	988.474792
1048.972656	964.088806
1047.228516	1023.590881
1045.484375	1000.629089
1043.738281	1030.255615
1041.992188	1034.296143
1040.246094	978.676758
1038.500000	1033.850952
1036.753906	1037.887939
1035.005859	1054.698608
1033.259766	1038.860352
1031.511719	1034.379883
1029.763672	1048.343140
1028.015625	1025.424683
1026.265625	1020.949951
1024.515625	1088.778687
1022.767578	1082.874756
1021.015625	1051.465942
1019.265625	1131.994995
1017.515625	1083.591431
1015.763672	1042.289429
1014.011719	1112.857300
1012.259766	1089.968750
1010.507813	1115.208130
1008.755859	1120.627563
1007.001953	1159.995605
1005.248047	1130.044678
1003.494141	1172.221558
1001.740234	1118.247681
999.986328	1157.582031
998.230469	1203.964844
996.476563	1243.263550
994.720703	1210.507935
992.962891	1241.315063
991.207031	1298.934570
989.451172	1391.818604
987.693359	1456.437012
985.935547	1429.314209
984.177734	1433.237793
982.419922	1445.621704
980.660156	1497.481812
978.900391	1564.826782
977.140625	1464.417969
975.380859	1540.195679
973.621094	1472.238770
971.861328	1421.213501
970.099609	1446.254761
968.337891	1433.270996
966.576172	1458.298706
964.814453	1443.910522
963.050781	1446.412598
961.289063	1419.372559
959.525391	1424.691528
957.761719	1410.322632
955.998047	1428.293213
954.232422	1332.410767
952.466797	1429.081055
950.703125	1458.274780
948.937500	1439.699951
947.169922	1452.027222
945.404297	1471.368896
943.636719	1405.078003
941.871094	1441.261841
940.103516	1449.368530
938.335938	1315.792358
936.566406	1307.093018
934.798828	1179.213989
933.029297	1127.090210
931.259766	1100.216919
929.490234	1112.590088
927.718750	1056.311523
925.949219	1001.457947
924.177734	984.437134
922.406250	963.223511
920.634766	1007.806396
918.863281	964.205872
917.089844	970.992737
915.316406	940.008423
913.542969	944.000366
911.769531	935.406616
909.996094	932.408203
908.220703	928.013367
906.447266	937.593506
904.671875	996.064575
902.896484	948.360840
901.119141	879.731750
899.343750	899.086487
897.566406	967.285522
895.789063	916.838135
894.011719	980.818115
892.234375	901.096924
890.455078	913.452820
888.677734	925.803284
886.898438	903.298828
885.119141	910.071350
883.337891	908.480591
881.558594	899.925049
879.777344	944.298523
877.996094	888.394897
876.214844	885.417847
874.433594	907.495544
872.650391	864.160156
870.869141	865.363892
869.085938	887.431396
867.302734	852.472351
865.519531	906.511169
863.734375	918.824829
861.951172	936.692078
860.166016	896.194641
858.380859	884.886902
856.593750	884.694702
854.808594	903.942139
853.021484	917.628235
851.234375	889.670105
849.447266	897.802612
847.660156	861.536804
845.873047	898.799561
844.083984	894.444031
842.294922	895.636108
840.505859	894.055298
838.716797	903.561768
836.925781	861.799438
835.136719	930.873535
833.345703	905.742432
831.554688	947.084290
829.763672	931.650757
827.970703	949.440430
826.179688	974.140930
824.386719	1011.281433
822.593750	947.437866
820.798828	988.716370
819.005859	1014.769104
817.210938	1018.694946
815.417969	982.543396
813.621094	992.000854
811.826172	984.878357
810.031250	925.280334
808.234375	969.261780
806.437500	962.148682
804.640625	912.255127
802.843750	929.994019
801.046875	918.755432
799.248047	944.760315
797.449219	922.492004
795.650391	920.912415
793.851563	974.465942
792.050781	990.789734
790.251953	1004.351013
788.451172	1057.851074
786.650391	1038.341064
784.849609	1043.621948
783.046875	1064.042236
781.244141	990.871094
779.443359	1005.790100
777.640625	978.058655
775.835938	987.472534
774.033203	947.381897
772.228516	925.179932
770.423828	1021.186890
768.619141	979.740845
766.814453	998.760498
765.009766	984.807495
763.203125	1045.013916
761.396484	1065.379639
759.589844	1131.032471
757.783203	1106.083984
755.974609	1056.450195
754.167969	1097.370972
752.359375	1042.274902
750.550781	1084.551880
748.740234	1048.673828
746.931641	1047.074341
745.121094	1002.998779
743.310547	1027.438232
741.500000	992.973389
739.689453	1024.250854
737.876953	941.885864
736.066406	918.411865
734.253906	951.053345
732.441406	878.335022
730.626953	876.775208
728.814453	868.378479
727.000000	890.064270
725.185547	910.373657
723.371094	855.509521
721.556641	830.728516
719.740234	819.618652
717.925781	852.216980
716.109375	879.339294
714.291016	834.097534
712.474609	854.387634
710.658203	814.629150
708.839844	840.371521
707.021484	864.738586
705.203125	889.094971
703.382813	884.810364
701.564453	853.266663
699.744141	813.560242
697.923828	829.731567
696.103516	828.187805
694.283203	833.453918
692.460938	761.109070
690.638672	780.000000
688.816406	771.663452
686.994141	781.019104
685.171875	774.046204
683.347656	836.439636
681.523438	840.335693
679.699219	851.027344
677.875000	818.220825
676.050781	827.553650
674.224609	861.336670
672.398438	828.549255
670.572266	839.231506
668.746094	791.528687
666.917969	783.210876
665.091797	806.109619
663.263672	827.641541
661.435547	784.052307
659.607422	798.798523
657.777344	741.675659
655.947266	809.292969
654.119141	782.009399
652.287109	848.233093
650.457031	830.435852
648.626953	832.962463
646.794922	805.697388
644.962891	852.904175
643.130859	860.838074
641.298828	872.828186
639.464844	955.164978
637.630859	927.902771
635.796875	977.735291
633.962891	985.632813
632.128906	1027.320190
630.292969	1014.931702
628.458984	1021.464478
626.623047	988.819824
624.785156	1048.026855
622.949219	1003.238220
621.111328	1003.017822
619.275391	1048.685913
617.437500	1055.202271
615.597656	1001.007690
613.759766	1011.577820
611.919922	1000.567688
610.080078	998.999573
608.240234	990.692688
606.400391	1034.945190
604.560547	1046.843140
602.718750	1077.593872
600.876953	1055.809692
599.035156	1106.740723
597.193359	1119.958252
595.349609	1138.553223
593.507813	1193.468750
591.664063	1179.754028
589.820313	1129.732422
587.974609	1121.416016
586.130859	1106.381592
584.285156	1145.114990
582.439453	1108.582153
580.593750	1100.277466
578.748047	1055.711426
576.900391	1040.707642
575.052734	1106.263550
573.205078	1067.094482
571.357422	1101.750488
569.509766	1090.774536
567.660156	1062.365479
565.810547	1078.224365
563.960938	1114.187866
562.111328	1081.770752
560.259766	1054.728516
558.410156	1014.299316
556.558594	1042.207397
554.707031	1016.530884
552.855469	1039.069946
551.001953	1005.373047
549.148438	1026.566040
547.294922	1008.944153
545.441406	1011.397278
543.587891	1092.763672
541.732422	1061.766235
539.878906	1056.184326
538.023438	1130.803589
536.167969	1174.653687
534.310547	1255.894043
532.455078	1322.405029
530.597656	1543.800903
528.740234	1961.369385
526.882813	2944.741943
525.023438	5750.721680
523.166016	12118.014648
521.306641	19472.320313
519.447266	17008.677734
517.585938	7855.092285
515.726563	3675.387451
513.865234	2208.477295
512.003906	1669.650513
510.142578	1344.218018
508.281250	1190.748779
506.417969	1129.230225
504.556641	1077.058228
502.693359	1002.281433
500.828125	983.429321
498.964844	956.602722
497.101563	903.184509
495.236328	880.377014
493.371094	886.830261
491.505859	882.646362
489.638672	862.516296
487.771484	811.835022
485.906250	842.208801
484.039063	846.006836
482.169922	824.574646
480.302734	835.012390
478.433594	866.681213
476.564453	889.047363
474.695313	871.604309
472.826172	909.875549
470.955078	982.607239
469.083984	1004.927673
467.212891	1035.191040
465.341797	1004.482849
463.470703	1100.976807
461.597656	1119.277344
459.724609	1175.974121
457.851563	1203.517700
455.978516	1325.032349
454.105469	1359.147705
452.230469	1391.924683
450.355469	1359.868408
448.480469	1445.531982
446.605469	1445.211670
444.728516	1395.979248
442.851563	1435.319580
440.976563	1351.755615
439.097656	1395.051270
437.220703	1363.043335
435.341797	1340.292969
433.464844	1350.557251
431.585938	1310.660889
429.705078	1299.813354
427.826172	1295.567139
425.945313	1266.261230
424.064453	1326.641968
422.183594	1340.850464
420.302734	1422.277954
418.421875	1512.894165
416.539063	1603.470093
414.656250	1867.884888
412.773438	2146.668945
410.888672	2882.218018
409.005859	4174.273438
407.121094	5993.510254
405.236328	6902.717285
403.351563	6446.017090
401.464844	5420.027832
399.580078	4244.592285
397.693359	3093.341797
395.806641	2304.047363
393.917969	1796.311035
392.031250	1756.499146
390.142578	1984.652588
388.253906	3231.730469
386.365234	4868.181152
384.476563	4772.592285
382.585938	3199.393311
380.695313	2111.025146
378.804688	1718.351929
376.914063	1602.564209
375.023438	1435.693726
373.130859	1268.897217
371.238281	1255.509521
369.345703	1215.922485
367.453125	1167.183105
365.558594	1121.084717
363.666016	1023.940674
361.771484	1065.603882
359.875000	996.000183
357.980469	1024.565796
356.083984	943.228027
354.189453	953.481567
352.292969	1001.651978
350.394531	964.823242
348.498047	930.624939
346.599609	989.222229
344.701172	909.306946
342.802734	935.228149
340.904297	928.490417
339.003906	911.310730
337.105469	901.970581
335.205078	852.178833
333.302734	848.074768
331.402344	881.801208
329.500000	842.480286
327.597656	886.623718
325.695313	929.443848
323.792969	854.949829
321.890625	852.153320
319.986328	845.449829
318.082031	853.075745
316.177734	848.979187
314.271484	856.600830
312.367188	839.489868
310.460938	895.256104
308.554688	900.260254
306.648438	872.745422
304.740234	920.664551
302.833984	915.258789
300.925781	899.457031
299.017578	879.763794
297.107422	843.189453
295.199219	837.805542
293.289063	837.618530
291.378906	810.166321
289.468750	820.369873
287.556641	877.288269
285.646484	839.465637
283.734375	808.145752
281.822266	785.918030
279.910156	809.081360
277.996094	706.491760
276.082031	790.575562
274.167969	754.118286
272.253906	735.813538
270.339844	740.829712
268.423828	716.061707
266.507813	761.211853
264.591797	711.858704
262.675781	749.225586
260.759766	747.764343
258.841797	757.944519
256.923828	756.481873
255.005859	748.555664
253.085938	716.074402
251.167969	744.344055
249.248047	771.309021
247.328125	769.844788
245.408203	752.884338
243.486328	782.411377
241.566406	769.328064
239.644531	720.115784
237.722656	789.627625
235.798828	762.361877
233.876953	777.667175
231.953125	776.203674
230.029297	821.147888
228.105469	842.873535
226.179688	773.105286
224.253906	824.460999
222.330078	828.140076
220.402344	802.201721
218.476563	786.573730
216.550781	839.167236
214.623047	836.405640
212.695313	833.645203
210.767578	811.592957
208.837891	801.123718
206.908203	813.800415
204.980469	814.903320
203.048828	817.290710
201.119141	787.557983
199.189453	846.467102
197.257813	812.888489
195.326172	811.422241
193.394531	807.389404
191.460938	814.908203
189.529297	866.046692
187.595703	827.370056
185.662109	815.642273
183.726563	770.583374
181.792969	830.658813
179.857422	816.374817
177.921875	809.785034
175.986328	798.074097
174.048828	833.755371
172.113281	752.900269
170.175781	774.493835
168.238281	755.121887
166.298828	790.780579
164.361328	805.954468
162.421875	809.610413
160.482422	755.722351
158.542969	807.968201
156.601563	807.786682
154.662109	825.495117
152.720703	802.313354
150.779297	817.460449
148.835938	755.980896
146.894531	781.345093
144.951172	753.088196
143.007813	710.806458
141.064453	722.129211
139.119141	690.077820
137.175781	714.152832
135.230469	722.917114
133.285156	743.149658
131.337891	693.280396
129.392578	658.723022
127.445313	689.146912
125.498047	690.265381
123.550781	665.917969
121.601563	623.759766
119.652344	687.254028
117.705078	665.468384
115.753906	679.311890
113.804688	610.479919
111.853516	559.480591
109.904297	551.727051
107.953125	496.950867
106.000000	373.582214
104.048828	278.217957
