#Wave		#Intensity
5504.711914	3878.595947
5503.824219	4191.566406
5502.936523	4067.917725
5502.048828	4042.080811
5501.160156	4102.833984
5500.272461	4049.075195
5499.383789	4154.477539
5498.496094	4083.979004
5497.607422	4035.832520
5496.718750	4196.994141
5495.830078	4106.993164
5494.940430	4042.129639
5494.051758	4041.437744
5493.162109	4057.477783
5492.272461	4146.004395
5491.382813	4109.054688
5490.493164	4097.202637
5489.603516	4068.633789
5488.712891	4014.998291
5487.823242	4198.172363
5486.932617	4244.803711
5486.041992	4090.911621
5485.151367	4118.054688
5484.260742	4022.697510
5483.369141	4216.846680
5482.478516	4252.302246
5481.586914	4243.226563
5480.695313	4178.514648
5479.803711	4300.184570
5478.912109	4160.397461
5478.020508	4151.343262
5477.127930	4295.195313
5476.236328	4269.442871
5475.343750	4143.651855
5474.451172	4287.430664
5473.558594	4239.467285
5472.666016	4210.964355
5471.772461	4193.579590
5470.879883	4209.521484
5469.986328	4253.220215
5469.092773	4224.733398
5468.199219	4143.525879
5467.305664	4289.881348
5466.411133	4169.849121
5465.517578	4191.325195
5464.623047	4315.409668
5463.728516	4137.203125
5462.833984	4275.116211
5461.939453	4338.138672
5461.044922	4456.569336
5460.150391	4356.048828
5459.254883	4360.842773
5458.359375	4440.427246
5457.463867	4442.435547
5456.568359	4319.832520
5455.672852	4352.315430
5454.777344	4398.627930
5453.880859	4353.590332
5452.984375	4430.326172
5452.087891	4465.534180
5451.191406	4492.430664
5450.294922	4386.560059
5449.398438	4399.634277
5448.500977	4437.587402
5447.604492	4483.820313
5446.707031	4438.828613
5445.809570	4435.303711
5444.912109	4351.654297
5444.013672	4466.931641
5443.116211	4336.351074
5442.217773	4562.052734
5441.320313	4544.703613
5440.421875	4488.711914
5439.523438	4512.782715
5438.624023	4531.325684
5437.725586	4447.772949
5436.826172	4375.283691
5435.927734	4614.497559
5435.028320	4591.643555
5434.128906	4634.971680
5433.229492	4642.446289
5432.329102	4547.934570
5431.429688	4428.651855
5430.529297	4549.128418
5429.628906	4793.533691
5428.728516	4544.812012
5427.828125	4670.713379
5426.927734	4488.181641
5426.026367	4616.802246
5425.125977	4585.731445
5424.224609	4642.737305
5423.323242	4680.462402
5422.421875	4627.387207
5421.520508	4676.104004
5420.618164	4570.793945
5419.716797	4726.742188
5418.814453	4665.447266
5417.912109	4683.886719
5417.009766	4707.816895
5416.107422	4467.948242
5415.205078	4706.199219
5414.301758	4699.896973
5413.399414	4789.720703
5412.496094	4761.437988
5411.592773	4678.256348
5410.689453	4715.881836
5409.785156	4734.283203
5408.881836	4752.677734
5407.977539	4603.708008
5407.073242	4729.099609
5406.168945	4733.771973
5405.264648	4727.473633
5404.360352	4671.827637
5403.456055	4840.979492
5402.550781	4914.146973
5401.645508	4735.184570
5400.740234	4964.513672
5399.834961	4719.859863
5398.929688	4924.462402
5398.024414	4882.540039
5397.118164	4753.018555
5396.212891	5047.844727
5395.306641	4833.492676
5394.400391	4870.972656
5393.493164	4807.206055
5392.586914	4956.834961
5391.680664	4942.307129
5390.773438	4903.172363
5389.866211	4959.746094
5388.958984	4909.686523
5388.051758	4960.772461
5387.144531	4951.721191
5386.236328	5013.711426
5385.329102	4928.162598
5384.420898	4891.807617
5383.512695	4959.237305
5382.604492	4854.628906
5381.696289	4864.713379
5380.787109	4973.054199
5379.878906	4901.244629
5378.969727	4908.586426
5378.060547	5057.783691
5377.151367	5122.375000
5376.242188	5036.953125
5375.332031	5076.985352
5374.422852	5125.182129
5373.512695	5047.980469
5372.602539	5180.647461
5371.692383	4893.656250
5370.782227	5121.653320
5369.872070	5221.552734
5368.960938	5089.933105
5368.050781	5121.730957
5367.139648	5104.514648
5366.228516	5155.352051
5365.317383	5195.286133
5364.405273	5207.996582
5363.494141	5079.234375
5362.582031	5062.039063
5361.669922	4995.896973
5360.757813	5234.319336
5359.845703	5189.918945
5358.933594	5362.989258
5358.021484	5313.145996
5357.108398	5138.326660
5356.195313	5292.297852
5355.282227	5223.478027
5354.369141	5271.463379
5353.456055	5365.593262
5352.542969	5237.067383
5351.628906	5312.169434
5350.714844	5357.391602
5349.801758	5394.457031
5348.887695	5309.422852
5347.972656	5294.944824
5347.058594	5451.334473
5346.143555	5293.119629
5345.229492	5235.272461
5344.314453	5326.533691
5343.399414	5412.342773
5342.484375	5343.665527
5341.568359	5432.150879
5340.653320	5558.529785
5339.737305	5349.026855
5338.821289	5521.409668
5337.905273	5466.309082
5336.989258	5489.729004
5336.073242	5391.348145
5335.157227	5390.417969
5334.240234	5508.533203
5333.323242	5399.378906
5332.406250	5528.270020
5331.489258	5657.116211
5330.572266	5518.251465
5329.654297	5490.267090
5328.737305	5548.780762
5327.819336	5531.609375
5326.901367	5609.008301
5325.983398	5581.026855
5325.065430	5609.773438
5324.146484	5503.488281
5323.228516	5575.437500
5322.309570	5633.864746
5321.390625	5694.970215
5320.471680	5642.713867
5319.552734	5725.381348
5318.632813	5681.230957
5317.713867	5736.890625
5316.793945	5851.858887
5315.874023	5716.036133
5314.954102	5655.742188
5314.034180	5660.156250
5313.114258	5721.160645
5312.193359	5825.253418
5311.272461	5789.226563
5310.352539	5561.977051
5309.431641	5859.937988
5308.509766	5667.756836
5307.588867	5914.446777
5306.667969	5733.088867
5305.746094	5772.465332
5304.824219	5741.871094
5303.902344	5964.165527
5302.980469	5825.958984
5302.058594	5765.788574
5301.135742	5901.920898
5300.213867	5771.861328
5299.291016	5789.679199
5298.368164	5912.299316
5297.445313	5852.165039
5296.521484	5783.991699
5295.598633	5987.129395
5294.674805	5859.873535
5293.750977	5952.838867
5292.827148	5922.278809
5291.903320	6039.358398
5290.979492	6008.793945
5290.055664	6048.003418
5289.130859	5995.985352
5288.206055	5994.948730
5287.281250	6026.094238
5286.356445	6067.954590
5285.431641	6096.395508
5284.506836	6132.867676
5283.581055	6000.487793
5282.655273	6136.105469
5281.729492	6196.663086
5280.803711	6208.984375
5279.877930	6250.760254
5278.952148	6230.935547
5278.025391	6114.737793
5277.098633	6271.607910
5276.171875	6262.494629
5275.245117	6312.251465
5274.318359	6206.820801
5273.391602	6170.973145
5272.463867	6292.929199
5271.536133	6158.142090
5270.609375	6151.729492
5269.680664	6353.816406
5268.752930	6267.194336
5267.825195	6161.896973
5266.896484	6294.413574
5265.968750	6282.639160
5265.040039	6409.746582
5264.111328	6248.421387
5263.182617	6244.669922
5262.252930	6361.040039
5261.324219	6464.025391
5260.394531	6516.274414
5259.464844	6413.764160
5258.535156	6487.343262
5257.605469	6470.217773
5256.675781	6503.763184
5255.745117	6441.316406
5254.814453	6525.501465
5253.883789	6572.344727
5252.953125	6459.288574
5252.022461	6426.198730
5251.091797	6443.731934
5250.160156	6589.099609
5249.229492	6441.500000
5248.297852	6528.244141
5247.366211	6484.521973
5246.434570	6608.488770
5245.501953	6492.919434
5244.570313	6603.538574
5243.637695	6719.438965
5242.705078	6457.629395
5241.772461	6573.514648
5240.839844	6612.256348
5239.907227	6600.477539
5238.973633	6564.782227
5238.041016	6720.427734
5237.107422	6591.732422
5236.173828	6590.589844
5235.240234	6937.378906
5234.305664	6646.726563
5233.372070	6751.775879
5232.437500	6665.658691
5231.502930	6696.352539
5230.568359	6687.230469
5229.633789	6882.408203
5228.699219	6806.937988
5227.764648	6805.757813
5226.829102	6942.472656
5225.893555	6867.030273
5224.958008	7019.591797
5224.022461	6848.746094
5223.086914	6829.008301
5222.150391	6902.010742
5221.213867	7004.126953
5220.278320	7116.801758
5219.341797	7012.289551
5218.405273	6883.984375
5217.467773	7007.209473
5216.531250	6929.237793
5215.593750	7107.984375
5214.656250	7056.479980
5213.718750	6946.794434
5212.781250	6903.270020
5211.843750	6872.982910
5210.905273	7091.243164
5209.967773	6978.983398
5209.029297	7115.212891
5208.090820	7232.896973
5207.152344	6935.717285
5206.212891	7069.241211
5205.274414	6999.341309
5204.334961	7066.787109
5203.396484	7205.498535
5202.457031	7064.333496
5201.516602	7356.083008
5200.577148	7320.499512
5199.637695	7108.147461
5198.697266	7207.159180
5197.756836	7182.168945
5196.816406	7194.107422
5195.875977	7227.134766
5194.935547	7389.325195
5193.994141	7243.075195
5193.053711	7526.429688
5192.112305	7427.633301
5191.170898	7313.063965
5190.229492	7364.472168
5189.287109	7294.722656
5188.345703	7498.830566
5187.403320	7305.350586
5186.460938	7572.555664
5185.518555	7471.237305
5184.576172	7293.649414
5183.633789	7494.948242
5182.690430	7540.990723
5181.748047	7481.824219
5180.804688	7435.824707
5179.861328	7381.954102
5178.917969	7675.057129
5177.973633	7497.647461
5177.030273	7280.886719
5176.085938	7615.886230
5175.141602	7646.082031
5174.197266	7741.920410
5173.252930	7456.998535
5172.308594	7510.832031
5171.363281	7438.656738
5170.418945	7502.971191
5169.473633	7525.281738
5168.528320	7592.181641
5167.582031	7580.369629
5166.636719	7618.388672
5165.691406	7593.465332
5164.745117	7597.387695
5163.798828	7590.823730
5162.852539	7807.020020
5161.906250	7774.219238
5160.958984	7626.159180
5160.012695	7635.309570
5159.065430	7974.433105
5158.118164	7700.731445
5157.170898	7827.670898
5156.223633	7708.521484
5155.276367	7730.733398
5154.328125	7938.714844
5153.379883	7769.900879
5152.432617	7687.462891
5151.484375	7934.570313
5150.535156	7901.812012
5149.586914	7866.450684
5148.637695	7737.002441
5147.689453	7871.552246
5146.740234	8055.700684
5145.791016	7863.586426
5144.840820	7974.534668
5143.891602	8025.377930
5142.941406	7984.813477
5141.992188	7936.430664
5141.041992	8055.118652
5140.091797	8142.447754
5139.140625	8021.001465
5138.190430	7951.774414
5137.239258	8224.270508
5136.289063	8087.225098
5135.337891	8096.246582
5134.386719	8154.797852
5133.434570	8234.180664
5132.483398	8295.292969
5131.531250	8270.397461
5130.579102	8222.062500
5129.627930	8040.900879
5128.674805	8042.104004
5127.722656	8290.672852
5126.770508	8333.485352
5125.817383	8178.459473
5124.864258	8307.158203
5123.911133	8467.037109
5122.958008	8548.812500
5122.004883	8326.225586
5121.050781	8389.791016
5120.097656	8518.339844
5119.143555	8249.078125
5118.189453	8486.777344
5117.235352	8331.964844
5116.280273	8509.801758
5115.326172	8560.277344
5114.371094	8304.229492
5113.416016	8507.948242
5112.460938	8553.203125
5111.505859	8554.307617
5110.550781	8583.963867
5109.594727	8655.133789
5108.639648	8718.493164
5107.683594	8618.387695
5106.727539	8575.382813
5105.770508	8667.250000
5104.814453	8740.934570
5103.857422	8646.078125
5102.901367	8730.108398
5101.944336	8811.516602
5100.987305	8791.840820
5100.030273	8868.028320
5099.072266	8695.523438
5098.115234	8862.343750
5097.157227	9005.800781
5096.199219	8859.250000
5095.241211	9041.484375
5094.282227	8876.861328
5093.324219	8730.409180
5092.365234	9054.859375
5091.407227	8978.266602
5090.448242	8937.905273
5089.489258	9086.318359
5088.529297	9087.317383
5087.570313	9018.524414
5086.610352	9130.663086
5085.650391	9139.404297
5084.690430	9173.976563
5083.730469	8978.646484
5082.770508	9134.616211
5081.809570	9138.185547
5080.849609	9074.628906
5079.888672	9369.885742
5078.927734	9133.397461
5077.966797	9108.579102
5077.004883	9243.720703
5076.043945	9304.012695
5075.082031	9341.071289
5074.120117	9244.034180
5073.158203	9314.604492
5072.196289	9338.752930
5071.234375	9517.523438
5070.271484	9533.897461
5069.308594	9380.230469
5068.345703	9406.925781
5067.382813	9338.321289
5066.419922	9336.689453
5065.457031	9342.780273
5064.493164	9426.089844
5063.529297	9488.781250
5062.565430	9402.208984
5061.601563	9482.890625
5060.637695	9573.833008
5059.673828	9495.005859
5058.708984	9668.195313
5057.744141	9460.834961
5056.779297	9546.574219
5055.814453	9688.824219
5054.849609	9707.685547
5053.883789	9533.859375
5052.918945	9853.270508
5051.953125	9625.546875
5050.987305	9801.036133
5050.020508	9670.958008
5049.054688	9907.981445
5048.088867	9652.175781
5047.122070	9827.536133
5046.155273	9815.554688
5045.188477	9834.357422
5044.221680	9868.541016
5043.253906	10028.354492
5042.287109	9926.615234
5041.319336	9809.532227
5040.351563	9943.643555
5039.383789	9898.342773
5038.416016	9942.724609
5037.447266	10053.687500
5036.479492	10082.660156
5035.510742	10126.984375
5034.541992	10130.332031
5033.573242	9962.180664
5032.604492	10139.580078
5031.634766	10058.483398
5030.665039	10148.821289
5029.696289	10223.780273
5028.726563	10081.331055
5027.755859	10128.148438
5026.786133	10098.252930
5025.815430	10155.273438
5024.845703	10258.275391
5023.875000	10167.046875
5022.904297	10425.847656
5021.933594	10372.935547
5020.961914	10506.471680
5019.991211	10297.806641
5019.019531	10398.120117
5018.047852	10605.602539
5017.076172	10458.277344
5016.104492	10571.266602
5015.131836	10462.265625
5014.160156	10613.473633
5013.187500	10563.159180
5012.214844	10556.208008
5011.242188	10383.549805
5010.268555	10583.093750
5009.295898	10586.335938
5008.322266	10724.621094
5007.348633	10643.765625
5006.375000	10585.863281
5005.401367	10729.167969
5004.427734	10661.083984
5003.453125	10687.218750
5002.479492	10664.981445
5001.504883	10451.884766
5000.530273	10679.051758
4999.554688	10781.483398
4998.580078	10632.066406
4997.604492	10884.511719
4996.629883	10702.073242
4995.654297	10819.680664
4994.678711	10873.701172
4993.702148	10978.529297
4992.726563	10869.885742
4991.750000	10880.680664
4990.773438	10916.872070
4989.796875	10965.747070
4988.820313	10948.587891
4987.843750	10784.192383
4986.866211	11223.948242
4985.889648	11110.316406
4984.912109	11057.620117
4983.934570	10956.741211
4982.957031	11137.440430
4981.978516	11143.093750
4981.000977	11250.165039
4980.022461	11149.321289
4979.043945	11251.284180
4978.065430	11330.403320
4977.086914	11414.561523
4976.107422	11506.289063
4975.127930	11248.449219
4974.149414	11170.501953
4973.169922	11411.609375
4972.189453	11662.757813
4971.209961	11354.448242
4970.230469	11405.597656
4969.250000	11320.097656
4968.269531	11363.644531
4967.289063	11548.816406
4966.308594	11432.989258
4965.327148	11537.173828
4964.346680	11636.265625
4963.365234	11487.624023
4962.383789	11634.703125
4961.402344	11771.624023
4960.420898	11544.723633
4959.438477	11598.261719
4958.457031	11697.235352
4957.474609	11781.025391
4956.492188	11561.853516
4955.509766	11620.397461
4954.527344	11774.813477
4953.543945	11881.236328
4952.560547	11783.287109
4951.577148	11844.270508
4950.593750	11983.406250
4949.610352	11862.796875
4948.626953	12062.380859
4947.642578	11833.420898
4946.658203	12012.779297
4945.674805	12023.264648
4944.689453	12131.990234
4943.705078	12084.520508
4942.720703	12135.277344
4941.735352	12133.142578
4940.750000	12156.181641
4939.764648	12035.749023
4938.779297	12114.158203
4937.793945	12242.858398
4936.807617	12225.611328
4935.821289	12271.247070
4934.835938	12236.397461
4933.849609	12261.900391
4932.862305	12543.800781
4931.875977	12338.011719
4930.888672	12431.331055
4929.902344	12285.932617
4928.915039	12331.498047
4927.926758	12208.771484
4926.939453	12452.713867
4925.952148	12392.775391
4924.963867	12814.826172
4923.975586	12551.549805
4922.987305	12456.493164
4921.999023	12624.906250
4921.010742	12702.955078
4920.021484	12437.374023
4919.032227	12675.913086
4918.042969	12778.981445
4917.053711	12834.384766
4916.064453	12804.555664
4915.075195	12671.996094
4914.084961	12805.055664
4913.094727	12735.166016
4912.104492	12925.769531
4911.114258	12860.890625
4910.124023	13038.885742
4909.132813	13161.748047
4908.142578	12821.557617
4907.151367	12936.907227
4906.160156	12984.664063
4905.167969	12982.375977
4904.176758	13167.661133
4903.184570	13062.818359
4902.193359	13128.018555
4901.201172	13135.703125
4900.208984	13120.891602
4899.215820	13201.038086
4898.223633	13408.571289
4897.230469	13243.843750
4896.237305	13413.833984
4895.244141	13274.132813
4894.250977	13349.185547
4893.257813	13249.482422
4892.263672	13681.396484
4891.269531	13204.885742
4890.275391	13457.027344
4889.281250	13522.001953
4888.287109	13472.232422
4887.292969	13447.415039
4886.297852	13397.674805
4885.302734	13624.631836
4884.307617	13567.400391
4883.312500	13814.179688
4882.317383	13687.177734
4881.321289	13923.884766
4880.325195	13605.145508
4879.329102	13906.521484
4878.333008	13951.368164
4877.336914	13836.896484
4876.340820	13934.000977
4875.343750	13822.060547
4874.346680	13827.083984
4873.349609	13929.111328
4872.352539	13931.625977
4871.355469	14011.219727
4870.357422	13854.613281
4869.360352	14063.441406
4868.362305	13973.978516
4867.364258	14257.251953
4866.365234	14296.967773
4865.367188	14060.962891
4864.368164	14046.062500
4863.370117	14291.876953
4862.371094	14368.792969
4861.371094	14219.813477
4860.372070	14413.350586
4859.373047	14185.015625
4858.373047	14440.508789
4857.373047	14435.477539
4856.373047	14249.416016
4855.373047	14427.897461
4854.372070	14479.886719
4853.372070	14402.970703
4852.371094	14375.644531
4851.370117	14571.319336
4850.369141	14501.858398
4849.368164	14561.215820
4848.366211	14697.319336
4847.364258	14429.795898
4846.363281	15011.464844
4845.361328	14380.143555
4844.358398	14578.046875
4843.356445	14832.785156
4842.353516	14654.526367
4841.351563	14834.960938
4840.348633	14760.624023
4839.344727	14983.006836
4838.341797	14945.749023
4837.338867	15071.627930
4836.334961	14994.828125
4835.331055	14878.524414
4834.327148	15093.275391
4833.323242	15004.162109
4832.318359	15117.568359
4831.314453	14890.220703
4830.309570	15001.137695
4829.304688	15348.950195
4828.299805	14973.621094
4827.294922	15126.405273
4826.289063	15311.203125
4825.284180	15145.715820
4824.278320	15362.500000
4823.272461	15293.213867
4822.265625	15265.857422
4821.259766	15181.824219
4820.252930	15326.986328
4819.247070	15188.768555
4818.240234	15410.238281
4817.233398	15542.965820
4816.225586	15522.977539
4815.218750	15286.342773
4814.210938	15411.635742
4813.203125	15371.990234
4812.195313	15740.828125
4811.187500	15632.250977
4810.179688	15673.758789
4809.170898	15816.084961
4808.162109	15695.255859
4807.153320	15874.403320
4806.144531	15935.500977
4805.135742	15615.646484
4804.125977	15733.281250
4803.117188	15656.791992
4802.107422	15752.270508
4801.097656	15788.773438
4800.086914	16038.885742
4799.077148	15886.289063
4798.066406	15912.928711
4797.055664	16106.439453
4796.045898	15882.751953
4795.034180	16036.946289
4794.023438	16100.330078
4793.011719	16107.286133
4792.000977	16082.363281
4790.989258	16018.224609
4789.977539	16064.406250
4788.965820	16127.725586
4787.953125	16083.212891
4786.940430	16246.946289
4785.928711	16143.642578
4784.916016	16275.469727
4783.902344	16255.444336
4782.889648	16088.542969
4781.876953	16367.165039
4780.863281	16528.222656
4779.849609	16525.291016
4778.835938	16468.541016
4777.821289	16255.275391
4776.807617	16382.000000
4775.792969	16503.789063
4774.779297	16388.410156
4773.763672	16378.170898
4772.749023	16592.753906
4771.734375	16597.140625
4770.718750	16562.437500
4769.704102	16620.558594
4768.688477	16790.988281
4767.671875	16695.230469
4766.656250	16672.738281
4765.640625	16740.558594
4764.624023	16874.240234
4763.607422	16766.333984
4762.590820	16770.675781
4761.574219	16662.824219
4760.556641	16674.496094
4759.540039	17046.998047
4758.522461	16717.328125
4757.504883	16911.773438
4756.487305	17028.171875
4755.468750	16971.548828
4754.451172	17268.152344
4753.432617	17002.052734
4752.414063	17108.609375
4751.395508	17137.220703
4750.376953	17048.980469
4749.357422	17284.458984
4748.338867	17227.855469
4747.319336	17166.406250
4746.299805	17302.005859
4745.280273	17240.562500
4744.259766	17103.761719
4743.240234	17443.515625
4742.219727	17331.033203
4741.199219	17269.626953
4740.178711	17563.000000
4739.158203	17404.394531
4738.136719	17306.570313
4737.115234	17429.779297
4736.094727	17531.089844
4735.073242	17719.761719
4734.050781	17255.431641
4733.029297	17655.216797
4732.006836	17535.611328
4730.984375	17554.326172
4729.961914	17619.121094
4728.939453	17802.720703
4727.916992	17741.363281
4726.893555	17810.933594
4725.871094	17640.523438
4724.847656	17753.708984
4723.824219	17813.546875
4722.799805	17553.591797
4721.776367	18235.919922
4720.751953	17850.052734
4719.727539	17895.302734
4718.703125	18105.148438
4717.678711	18133.392578
4716.654297	18014.007813
4715.628906	18047.095703
4714.603516	18043.882813
4713.578125	18142.255859
4712.552734	18146.281250
4711.527344	18087.441406
4710.500977	18120.482422
4709.474609	18117.257813
4708.449219	18394.345703
4707.421875	18263.019531
4706.395508	18196.960938
4705.369141	18333.802734
4704.341797	18405.396484
4703.314453	18440.748047
4702.287109	18782.654297
4701.259766	18315.919922
4700.231445	18510.529297
4699.204102	18907.728516
4698.175781	18535.294922
4697.147461	18647.757813
4696.119141	18504.578125
4695.090820	18617.005859
4694.061523	18714.929688
4693.032227	18675.443359
4692.002930	18652.839844
4690.973633	18719.382813
4689.944336	18997.871094
4688.915039	18994.486328
4687.884766	18639.548828
4686.854492	18975.679688
4685.824219	18967.484375
4684.793945	18814.892578
4683.762695	18987.191406
4682.732422	18957.343750
4681.701172	19076.634766
4680.669922	19188.669922
4679.638672	19259.787109
4678.607422	19119.322266
4677.575195	19284.166016
4676.542969	19326.388672
4675.510742	19171.568359
4674.478516	19590.958984
4673.446289	19330.462891
4672.413086	19449.490234
4671.380859	19081.062500
4670.347656	19430.548828
4669.314453	19287.873047
4668.281250	19790.779297
4667.247070	19432.148438
4666.213867	19680.566406
4665.179688	19624.289063
4664.145508	19460.119141
4663.111328	19487.814453
4662.076172	19592.210938
4661.041992	19648.634766
4660.006836	19784.115234
4658.971680	19663.183594
4657.936523	19853.708984
4656.900391	19742.386719
4655.865234	19813.095703
4654.829102	19864.626953
4653.792969	19868.261719
4652.756836	19886.253906
4651.720703	19650.591797
4650.684570	20247.595703
4649.647461	19729.689453
4648.610352	19805.089844
4647.573242	20150.667969
4646.536133	19872.130859
4645.498047	20317.966797
4644.460938	20058.617188
4643.422852	19997.685547
4642.384766	20264.078125
4641.346680	20200.742188
4640.308594	20161.310547
4639.269531	20604.224609
4638.230469	20223.339844
4637.191406	20458.419922
4636.152344	20485.789063
4635.113281	20193.414063
4634.073242	20290.001953
4633.034180	20517.744141
4631.994141	20323.292969
4630.954102	20438.878906
4629.914063	20261.197266
4628.873047	20550.748047
4627.832031	20375.492188
4626.791992	20536.253906
4625.750977	20920.888672
4624.708984	20619.419922
4623.667969	20301.390625
4622.625977	20690.619141
4621.584961	20603.601563
4620.542969	20697.501953
4619.500000	20867.517578
4618.458008	21156.435547
4617.416016	20845.781250
4616.373047	20727.888672
4615.330078	20372.238281
4614.287109	20941.585938
4613.244141	20883.166016
4612.200195	20396.957031
4611.156250	21082.431641
4610.112305	20978.873047
4609.068359	20806.462891
4608.024414	21082.992188
4606.980469	21024.603516
4605.935547	20887.886719
4604.890625	21166.623047
4603.845703	20970.597656
4602.800781	21303.792969
4601.754883	21247.785156
4600.709961	21163.332031
4599.664063	20962.701172
4598.618164	20913.894531
4597.572266	21398.527344
4596.526367	21193.216797
4595.479492	21066.187500
4594.432617	21619.246094
4593.385742	21191.310547
4592.338867	21308.316406
4591.291992	21631.314453
4590.244141	21201.236328
4589.197266	21573.851563
4588.149414	21534.482422
4587.101563	21334.203125
4586.052734	21614.314453
4585.004883	21503.986328
4583.956055	21542.707031
4582.907227	21545.941406
4581.858398	21355.292969
4580.809570	21441.298828
4579.759766	21654.902344
4578.710938	21603.759766
4577.661133	21264.382813
4576.611328	21671.609375
4575.561523	21639.382813
4574.510742	21682.732422
4573.460938	21643.429688
4572.410156	22024.326172
4571.359375	21411.455078
4570.308594	21478.408203
4569.256836	21868.562500
4568.206055	22074.583984
4567.154297	21834.777344
4566.102539	21929.900391
4565.050781	21735.000000
4563.999023	21969.179688
4562.946289	21974.666016
4561.893555	21725.662109
4560.840820	22256.564453
4559.788086	21878.044922
4558.735352	21954.193359
4557.681641	22362.320313
4556.628906	21729.724609
4555.575195	22255.435547
4554.521484	22053.757813
4553.467773	22160.388672
4552.413086	22151.707031
4551.358398	21978.378906
4550.304688	22341.300781
4549.249023	22132.728516
4548.194336	22519.000000
4547.139648	22225.853516
4546.083984	22348.763672
4545.028320	22330.654297
4543.972656	22406.517578
4542.916992	22005.552734
4541.861328	22257.572266
4540.804688	22324.011719
4539.748047	22289.486328
4538.691406	22621.115234
4537.634766	22173.535156
4536.578125	22875.767578
4535.520508	22669.919922
4534.462891	22405.509766
4533.405273	22450.728516
4532.347656	22535.789063
4531.290039	22618.472656
4530.231445	22609.720703
4529.173828	22643.150391
4528.115234	22524.281250
4527.055664	22721.685547
4525.997070	22748.046875
4524.938477	22469.992188
4523.878906	22667.294922
4522.819336	22738.125000
4521.759766	22469.580078
4520.700195	22903.105469
4519.639648	22889.630859
4518.579102	23000.130859
4517.519531	22813.580078
4516.458008	23024.595703
4515.397461	22952.660156
4514.336914	22845.687500
4513.275391	22836.904297
4512.213867	23022.058594
4511.152344	23080.994141
4510.090820	23226.328125
4509.028320	23219.814453
4507.966797	23033.519531
4506.904297	23332.853516
4505.841797	22845.511719
4504.779297	22878.740234
4503.715820	22928.287109
4502.653320	23115.449219
4501.589844	23419.160156
4500.526367	23137.445313
4499.461914	23254.521484
4498.398438	23073.173828
4497.333984	23313.742188
4496.270508	23130.115234
4495.206055	23293.701172
4494.140625	23198.660156
4493.076172	23175.851563
4492.010742	23441.794922
4490.946289	23682.031250
4489.880859	23249.462891
4488.815430	23394.226563
4487.749023	23697.164063
4486.683594	23464.902344
4485.617188	23553.718750
4484.550781	23642.503906
4483.484375	23745.205078
4482.416992	23415.455078
4481.350586	23415.886719
4480.283203	23353.570313
4479.215820	23470.187500
4478.148438	23626.255859
4477.081055	24074.927734
4476.012695	23815.136719
4474.944336	23959.447266
4473.875977	23934.236328
4472.807617	24011.160156
4471.739258	23712.113281
4470.669922	23814.568359
4469.601563	23722.125000
4468.532227	23928.912109
4467.462891	23734.445313
4466.392578	23704.662109
4465.323242	24013.333984
4464.252930	23955.697266
4463.182617	23988.455078
4462.112305	23949.376953
4461.041992	23961.273438
4459.970703	23912.949219
4458.900391	23783.593750
4457.829102	24214.560547
4456.757813	24029.640625
4455.685547	24138.710938
4454.614258	23995.519531
4453.541992	24261.873047
4452.469727	24065.509766
4451.397461	24033.416016
4450.325195	24491.533203
4449.251953	24232.810547
4448.179688	24503.498047
4447.106445	24469.033203
4446.033203	24238.179688
4444.959961	24721.253906
4443.885742	24049.269531
4442.811523	24319.742188
4441.738281	24640.912109
4440.663086	24664.166016
4439.588867	24424.287109
4438.514648	24685.261719
4437.439453	24927.683594
4436.364258	24528.710938
4435.289063	24533.507813
4434.213867	24489.875000
4433.137695	24448.564453
4432.062500	24522.525391
4430.986328	24446.648438
4429.910156	24515.972656
4428.833984	24497.720703
4427.756836	24670.667969
4426.680664	24504.994141
4425.603516	24611.095703
4424.526367	24712.554688
4423.448242	24436.470703
4422.371094	24827.902344
4421.292969	24761.289063
4420.214844	25007.580078
4419.136719	24823.646484
4418.058594	24711.070313
4416.980469	24798.580078
4415.901367	24904.447266
4414.822266	24991.886719
4413.743164	24925.320313
4412.664063	24927.707031
4411.583984	24943.876953
4410.504883	25263.224609
4409.424805	24909.597656
4408.344727	25123.216797
4407.264648	24721.531250
4406.183594	25125.607422
4405.103516	25157.781250
4404.022461	25178.468750
4402.941406	24949.107422
4401.859375	25313.855469
4400.778320	25015.755859
4399.696289	24963.083984
4398.614258	24905.843750
4397.532227	25426.181641
4396.450195	25215.347656
4395.368164	25013.755859
4394.285156	24990.904297
4393.202148	25114.634766
4392.119141	24986.439453
4391.036133	25128.439453
4389.952148	25231.474609
4388.869141	25018.646484
4387.785156	25290.986328
4386.701172	25501.455078
4385.617188	25034.798828
4384.532227	25348.148438
4383.448242	25336.699219
4382.363281	25224.666016
4381.278320	25240.669922
4380.192383	25416.634766
4379.107422	25373.189453
4378.021484	25802.636719
4376.935547	25416.533203
4375.849609	25457.601563
4374.763672	25347.962891
4373.677734	25366.199219
4372.590820	25295.416016
4371.503906	25398.085938
4370.416992	25858.917969
4369.330078	25804.046875
4368.242188	25409.371094
4367.154297	25956.597656
4366.067383	25552.916016
4364.979492	25495.857422
4363.890625	25548.212891
4362.802734	25443.322266
4361.713867	25584.517578
4360.625000	25188.095703
4359.536133	25800.705078
4358.447266	25866.615234
4357.357422	25825.500000
4356.268555	25711.562500
4355.178711	25609.042969
4354.088867	25558.892578
4352.998047	25759.001953
4351.908203	25849.861328
4350.817383	25736.015625
4349.726563	25640.400391
4348.635742	25963.101563
4347.544922	25862.931641
4346.453125	25955.957031
4345.361328	26114.833984
4344.269531	25892.021484
4343.177734	25807.830078
4342.085938	26012.062500
4340.993164	25805.277344
4339.901367	25850.535156
4338.808594	25727.826172
4337.715820	26079.414063
4336.622070	25793.357422
4335.529297	25858.994141
4334.435547	25881.515625
4333.341797	25792.919922
4332.248047	26121.500000
4331.154297	26109.958984
4330.059570	25982.839844
4328.964844	26157.125000
4327.870117	26249.791016
4326.775391	25948.302734
4325.680664	25674.101563
4324.584961	26056.619141
4323.489258	26280.531250
4322.393555	26117.320313
4321.297852	25942.853516
4320.202148	26361.242188
4319.105469	26057.847656
4318.008789	26089.302734
4316.912109	26170.494141
4315.815430	26238.087891
4314.718750	25995.966797
4313.621094	26203.693359
4312.523438	26018.156250
4311.425781	26069.910156
4310.328125	26184.892578
4309.229492	26175.617188
4308.131836	25976.666016
4307.033203	26321.878906
4305.934570	26393.839844
4304.835938	26280.714844
4303.736328	26334.603516
4302.636719	26050.072266
4301.538086	26494.197266
4300.437500	26320.242188
4299.337891	26223.009766
4298.238281	26202.460938
4297.137695	26378.011719
4296.037109	26314.623047
4294.936523	26118.320313
4293.835938	26214.941406
4292.734375	26367.833984
4291.632813	26313.496094
4290.532227	26389.763672
4289.429688	26675.351563
4288.328125	26393.666016
4287.225586	26613.888672
4286.124023	26354.812500
4285.021484	26341.019531
4283.918945	26338.474609
4282.815430	26385.398438
4281.712891	26238.958984
4280.609375	26369.050781
4279.505859	26258.623047
4278.402344	26375.181641
4277.297852	26449.009766
4276.194336	26581.210938
4275.089844	26324.845703
4273.985352	26501.925781
4272.880859	26503.835938
4271.775391	26604.501953
4270.670898	26754.501953
4269.565430	26698.023438
4268.459961	26572.021484
4267.354492	26313.734375
4266.248047	26676.708984
4265.141602	26485.757813
4264.036133	26651.298828
4262.929688	26731.611328
4261.822266	26502.656250
4260.715820	26502.306641
4259.608398	26732.683594
4258.500977	26398.583984
4257.393555	26687.113281
4256.286133	26581.501953
4255.177734	26625.902344
4254.069336	26609.859375
4252.961914	26627.384766
4251.852539	26430.132813
4250.744141	26850.302734
4249.635742	26760.425781
4248.526367	26909.828125
4247.416992	26875.857422
4246.307617	26209.353516
4245.197266	26776.667969
4244.087891	26724.863281
4242.977539	26900.937500
4241.867188	26692.781250
4240.756836	26589.656250
4239.645508	26497.730469
4238.535156	26738.449219
4237.423828	26755.888672
4236.312500	26248.923828
4235.200195	26786.287109
4234.088867	26466.875000
4232.976563	26772.050781
4231.864258	26961.164063
4230.751953	26849.230469
4229.639648	26592.447266
4228.527344	26538.564453
4227.414063	26560.458984
4226.300781	26773.937500
4225.187500	26577.492188
4224.074219	26590.457031
4222.959961	26699.158203
4221.845703	26522.867188
4220.731445	26520.250000
4219.617188	26969.384766
4218.502930	26699.687500
4217.387695	26470.130859
4216.272461	26714.402344
4215.157227	26760.669922
4214.041992	26693.527344
4212.926758	26590.841797
4211.810547	26786.011719
4210.694336	26598.904297
4209.578125	26674.027344
4208.461914	26178.242188
4207.345703	26713.140625
4206.228516	26683.833984
4205.111328	26821.042969
4203.994141	26438.794922
4202.876953	26591.531250
4201.758789	26844.062500
4200.640625	26499.728516
4199.523438	26752.179688
4198.404297	26567.658203
4197.286133	26693.621094
4196.167969	26520.259766
4195.048828	26539.791016
4193.929688	26610.283203
4192.810547	26328.462891
4191.690430	26467.638672
4190.571289	26352.056641
4189.451172	26289.662109
4188.331055	26670.093750
4187.210938	26773.681641
4186.089844	26715.667969
4184.968750	26478.435547
4183.848633	26449.255859
4182.727539	26121.464844
4181.605469	26724.873047
4180.484375	26505.498047
4179.362305	26498.437500
4178.240234	26816.302734
4177.118164	26371.611328
4175.996094	26687.171875
4174.873047	26708.796875
4173.750000	26423.394531
4172.626953	26394.267578
4171.503906	26583.734375
4170.380859	26344.867188
4169.256836	26304.730469
4168.133789	26260.193359
4167.009766	26198.019531
4165.884766	26213.076172
4164.760742	26309.728516
4163.635742	26324.757813
4162.510742	26520.564453
4161.385742	26158.609375
4160.260742	26559.335938
4159.135742	26093.939453
4158.009766	26309.468750
4156.883789	26256.189453
4155.757813	26167.691406
4154.630859	26092.435547
4153.504883	26122.878906
4152.377930	25902.384766
4151.250977	25928.449219
4150.124023	26029.310547
4148.997070	26110.333984
4147.869141	26239.716797
4146.741211	26239.304688
4145.613281	26322.441406
4144.485352	26036.238281
4143.356445	26062.234375
4142.228516	25752.009766
4141.099609	25826.382813
4139.970703	26153.341797
4138.841797	25944.292969
4137.711914	25948.320313
4136.582031	25752.556641
4135.452148	26303.179688
4134.322266	25955.990234
4133.192383	25830.546875
4132.061523	25933.306641
4130.931641	25919.775391
4129.800781	25906.248047
4128.668945	25769.937500
4127.538086	25868.242188
4126.406250	25990.621094
4125.274414	25911.343750
4124.142578	25812.375000
4123.010742	25792.302734
4121.878906	25770.046875
4120.746094	25546.335938
4119.613281	25489.101563
4118.480469	25628.896484
4117.347656	25867.126953
4116.213867	25803.296875
4115.080078	25706.671875
4113.946289	25634.140625
4112.812500	25660.052734
4111.678711	25246.447266
4110.543945	25663.746094
4109.409180	25694.003906
4108.274414	25512.269531
4107.139648	25743.562500
4106.003906	25668.925781
4104.869141	25679.500000
4103.733398	25631.105469
4102.597656	25591.462891
4101.460938	25353.181641
4100.325195	25389.992188
4099.188477	25411.511719
4098.051758	25533.386719
4096.915039	25323.644531
4095.778320	25273.189453
4094.640625	25338.322266
4093.502930	25763.160156
4092.365234	25313.748047
4091.227539	25503.060547
4090.088867	25025.533203
4088.951172	25360.791016
4087.812500	25369.195313
4086.673828	25401.552734
4085.534180	25242.289063
4084.395508	25318.195313
4083.255859	25215.591797
4082.116211	25313.234375
4080.976563	25323.808594
4079.836914	25012.423828
4078.696289	25418.892578
4077.555664	25392.470703
4076.415039	25116.027344
4075.274414	24876.638672
4074.132813	25254.574219
4072.992188	25143.451172
4071.850586	25377.806641
4070.708984	25075.548828
4069.566406	25207.755859
4068.424805	24985.978516
4067.282227	24981.380859
4066.139648	25093.992188
4064.997070	25080.693359
4063.853516	24859.097656
4062.710938	24789.439453
4061.567383	24917.183594
4060.423828	25088.250000
4059.280273	24912.343750
4058.135742	24892.582031
4056.991211	25165.421875
4055.847656	24928.919922
4054.702148	24857.164063
4053.557617	24726.947266
4052.413086	24949.798828
4051.267578	24958.195313
4050.122070	24847.511719
4048.976563	25232.560547
4047.830078	24736.640625
4046.683594	24812.142578
4045.538086	24699.400391
4044.390625	24755.412109
4043.244141	24904.394531
4042.097656	24735.476563
4040.950195	24687.681641
4039.802734	24399.988281
4038.655273	24713.156250
4037.506836	24661.068359
4036.359375	24302.248047
4035.210938	24351.761719
4034.062500	24366.707031
4032.914063	24608.339844
4031.764648	24150.494141
4030.616211	24394.234375
4029.466797	24519.205078
4028.317383	24512.525391
4027.166992	24318.185547
4026.017578	24212.337891
4024.867188	24417.025391
4023.716797	24186.160156
4022.566406	24410.171875
4021.415039	24330.242188
4020.264648	24526.132813
4019.113281	24220.015625
4017.961914	24262.929688
4016.810547	24437.187500
4015.658203	24163.546875
4014.505859	24169.849609
4013.353516	24062.080078
4012.201172	23997.386719
4011.048828	23999.412109
4009.895508	23939.052734
4008.742188	24063.671875
4007.588867	24046.328125
4006.435547	23951.593750
4005.282227	24046.044922
4004.127930	23762.226563
4002.973633	24028.570313
4001.819336	23824.341797
4000.665039	23830.679688
3999.509766	24068.943359
3998.354492	23875.554688
3997.199219	23843.236328
3996.043945	23632.787109
3994.888672	23718.548828
3993.732422	23544.671875
3992.576172	23669.025391
3991.419922	23666.796875
3990.263672	23568.074219
3989.106445	23512.263672
3987.949219	23754.421875
3986.792969	23525.003906
3985.634766	23655.646484
3984.477539	23411.332031
3983.319336	23631.906250
3982.161133	23633.960938
3981.002930	23297.714844
3979.844727	23346.925781
3978.686523	23274.117188
3977.527344	23284.792969
3976.368164	23218.439453
3975.208984	23325.380859
3974.048828	23370.257813
3972.889648	23209.833984
3971.729492	23207.677734
3970.569336	23167.046875
3969.409180	23190.542969
3968.248047	22972.574219
3967.087891	22961.914063
3965.926758	22842.320313
3964.764648	22961.958984
3963.603516	22936.357422
3962.442383	22511.554688
3961.280273	22814.742188
3960.118164	22691.013672
3958.955078	22829.767578
3957.792969	22755.144531
3956.629883	22908.759766
3955.466797	22567.593750
3954.303711	22808.599609
3953.140625	22663.687500
3951.976563	22552.927734
3950.813477	22523.181641
3949.649414	22712.880859
3948.484375	22544.660156
3947.320313	22342.423828
3946.155273	22525.662109
3944.990234	22342.662109
3943.825195	22419.404297
3942.660156	22615.292969
3941.494141	22200.455078
3940.329102	22600.531250
3939.163086	22347.494141
3937.996094	22381.628906
3936.830078	22060.687500
3935.663086	22256.417969
3934.496094	22199.160156
3933.329102	22233.292969
3932.162109	22110.197266
3930.995117	22116.718750
3929.827148	21904.490234
3928.659180	21860.083984
3927.491211	22081.066406
3926.322266	22006.925781
3925.153320	21733.326172
3923.985352	21901.162109
3922.816406	21903.462891
3921.646484	21823.044922
3920.477539	21895.339844
3919.307617	21891.277344
3918.137695	21704.910156
3916.967773	21758.109375
3915.796875	21582.429688
3914.626953	21493.679688
3913.456055	21688.806641
3912.285156	21644.542969
3911.113281	21528.298828
3909.942383	21327.416016
3908.770508	21662.126953
3907.598633	21588.267578
3906.426758	21499.625000
3905.253906	21525.250000
3904.082031	21252.634766
3902.909180	21282.525391
3901.736328	21352.574219
3900.562500	21071.683594
3899.389648	21291.806641
3898.215820	21442.111328
3897.041992	21157.132813
3895.868164	21079.271484
3894.693359	21157.722656
3893.519531	21183.353516
3892.344727	20841.628906
3891.169922	21245.140625
3889.994141	21087.134766
3888.819336	20933.406250
3887.643555	21163.683594
3886.467773	20858.130859
3885.291992	20963.914063
3884.115234	20951.583984
3882.939453	20958.230469
3881.762695	20897.427734
3880.585938	20975.726563
3879.408203	20784.316406
3878.231445	20765.707031
3877.053711	20555.449219
3875.875977	20597.953125
3874.698242	20490.962891
3873.519531	20438.738281
3872.341797	20698.003906
3871.163086	20485.845703
3869.984375	20471.515625
3868.804688	20728.523438
3867.625977	20259.914063
3866.446289	20321.324219
3865.266602	20397.427734
3864.085938	20498.722656
3862.906250	20482.298828
3861.725586	20392.347656
3860.544922	20430.564453
3859.364258	20344.853516
3858.183594	20263.375000
3857.001953	20318.386719
3855.820313	20173.968750
3854.638672	20459.828125
3853.457031	20395.169922
3852.274414	20259.207031
3851.092773	19945.007813
3849.910156	19968.556641
3848.726563	20222.732422
3847.543945	19938.060547
3846.360352	20102.021484
3845.177734	19949.496094
3843.993164	19889.210938
3842.809570	20063.560547
3841.625977	20051.447266
3840.441406	19896.945313
3839.256836	19832.525391
3838.072266	19891.625000
3836.886719	19846.064453
3835.701172	19792.148438
3834.516602	19537.416016
3833.330078	19832.880859
3832.144531	19647.246094
3830.958008	19660.310547
3829.772461	19784.164063
3828.585938	19579.830078
3827.398438	19498.861328
3826.211914	19516.119141
3825.024414	19520.837891
3823.836914	19393.974609
3822.649414	19484.324219
3821.461914	19184.232422
3820.273438	19328.857422
3819.084961	19358.644531
3817.896484	19054.566406
3816.708008	19340.992188
3815.518555	19189.292969
3814.329102	19191.970703
3813.139648	19351.021484
3811.950195	19163.964844
3810.760742	19043.671875
3809.570313	19192.240234
3808.379883	18924.058594
3807.189453	18966.355469
3805.999023	18964.898438
3804.807617	19084.214844
3803.616211	18830.824219
3802.424805	19095.824219
3801.233398	19006.933594
3800.041992	19042.919922
3798.849609	18933.267578
3797.657227	18807.015625
3796.464844	18899.164063
3795.271484	18693.953125
3794.079102	18713.330078
3792.885742	18734.775391
3791.692383	18681.404297
3790.498047	18212.525391
3789.304688	18468.779297
3788.110352	18685.476563
3786.916016	18542.863281
3785.721680	18483.343750
3784.526367	18344.970703
3783.332031	18173.443359
3782.136719	18257.195313
3780.941406	18187.398438
3779.745117	18352.005859
3778.549805	18302.953125
3777.353516	18243.550781
3776.157227	18271.236328
3774.960938	18220.150391
3773.763672	18071.691406
3772.566406	17993.726563
3771.369141	18083.578125
3770.171875	17929.009766
3768.974609	17855.255859
3767.776367	18054.802734
3766.578125	18020.378906
3765.379883	18010.800781
3764.181641	17939.150391
3762.982422	17741.335938
3761.783203	17884.869141
3760.583984	17902.203125
3759.384766	17671.421875
3758.184570	17790.080078
3756.985352	17683.412109
3755.785156	17667.705078
3754.584961	17579.691406
3753.383789	17652.830078
3752.183594	17467.785156
3750.982422	17526.462891
3749.781250	17184.609375
3748.579102	17474.492188
3747.377930	17343.271484
3746.175781	17368.912109
3744.973633	17328.527344
3743.771484	17317.033203
3742.568359	17237.490234
3741.365234	17368.277344
3740.162109	17307.306641
3738.958984	17170.101563
3737.755859	16839.250000
3736.551758	17095.683594
3735.347656	17310.822266
3734.143555	16971.890625
3732.939453	17281.687500
3731.734375	16901.712891
3730.529297	17015.869141
3729.324219	16936.539063
3728.119141	16945.708984
3726.914063	16854.078125
3725.708008	16803.613281
3724.501953	16788.126953
3723.295898	16889.833984
3722.088867	16648.220703
3720.882813	16969.822266
3719.675781	16621.431641
3718.468750	16827.867188
3717.260742	16643.955078
3716.053711	16564.849609
3714.845703	16627.447266
3713.637695	16667.441406
3712.429688	16422.119141
3711.220703	16474.445313
3710.011719	16426.218750
3708.802734	16421.085938
3707.593750	16379.037109
3706.384766	16509.251953
3705.174805	16397.494141
3703.964844	16242.731445
3702.754883	16333.958008
3701.544922	16144.429688
3700.333984	16297.097656
3699.123047	16517.300781
3697.912109	16180.395508
3696.701172	16353.444336
3695.489258	16295.102539
3694.278320	16167.192383
3693.066406	16065.931641
3691.853516	16216.363281
3690.641602	15990.349609
3689.428711	15848.273438
3688.215820	15788.042969
3687.002930	15776.900391
3685.790039	15829.126953
3684.576172	15883.376953
3683.362305	15843.614258
3682.148438	15681.291992
3680.934570	15807.024414
3679.719727	15869.403320
3678.504883	15582.619141
3677.290039	15649.097656
3676.075195	15713.509766
3674.860352	15724.840820
3673.644531	15728.006836
3672.428711	15453.753906
3671.212891	15640.517578
3669.996094	15710.984375
3668.780273	15718.224609
3667.563477	15407.486328
3666.346680	15657.291992
3665.128906	15452.632813
3663.912109	15097.300781
3662.694336	15424.417969
3661.476563	15384.862305
3660.257813	15410.472656
3659.040039	15411.646484
3657.821289	15268.316406
3656.602539	15232.886719
3655.383789	15225.953125
3654.164063	15343.099609
3652.945313	15246.663086
3651.725586	15272.260742
3650.504883	15143.345703
3649.285156	15107.974609
3648.064453	15308.349609
3646.844727	15224.197266
3645.623047	15162.420898
3644.402344	15076.294922
3643.180664	14945.527344
3641.959961	14969.107422
3640.738281	14751.122070
3639.515625	14809.230469
3638.293945	14974.858398
3637.071289	15126.222656
3635.848633	14731.902344
3634.625977	14812.275391
3633.402344	14697.968750
3632.178711	14824.941406
3630.955078	14651.896484
3629.731445	14752.485352
3628.507813	14737.549805
3627.283203	14649.695313
3626.058594	14330.989258
3624.833984	14619.876953
3623.609375	14600.925781
3622.383789	14567.812500
3621.158203	14354.594727
3619.932617	14440.918945
3618.707031	14715.349609
3617.480469	14769.208984
3616.254883	14612.734375
3615.028320	14577.630859
3613.800781	14342.412109
3612.574219	14460.973633
3611.346680	14292.548828
3610.119141	14469.664063
3608.891602	14374.017578
3607.663086	14341.012695
3606.435547	14091.966797
3605.207031	14218.512695
3603.978516	14233.997070
3602.749023	14221.221680
3601.520508	14228.627930
3600.291016	14229.978516
3599.061523	14051.822266
3597.831055	14381.898438
3596.601563	13804.582031
3595.371094	14070.074219
3594.140625	13960.603516
3592.909180	14004.314453
3591.678711	13985.554688
3590.447266	13898.316406
3589.215820	13901.734375
3587.984375	13957.500977
3586.751953	13787.778320
3585.520508	13851.594727
3584.288086	13915.387695
3583.054688	13981.166992
3581.822266	13821.623047
3580.588867	14040.245117
3579.355469	13685.699219
3578.122070	13498.153320
3576.888672	13702.640625
3575.654297	13679.955078
3574.419922	13711.529297
3573.185547	13550.233398
3571.951172	13688.271484
3570.715820	13555.154297
3569.480469	13574.678711
3568.245117	13405.498047
3567.009766	13477.225586
3565.773438	13480.698242
3564.538086	13327.679688
3563.301758	13429.466797
3562.064453	13346.708008
3560.828125	13406.343750
3559.590820	13524.094727
3558.353516	13497.485352
3557.116211	13376.697266
3555.877930	13237.921875
3554.640625	13197.357422
3553.402344	13114.747070
3552.164063	13226.408203
3550.924805	13277.962891
3549.686523	13179.368164
3548.447266	13230.912109
3547.207031	13306.446289
3545.967773	13123.875977
3544.727539	13071.387695
3543.488281	12750.940430
3542.248047	13106.430664
3541.006836	13129.938477
3539.766602	12883.612305
3538.525391	12963.105469
3537.284180	12902.710938
3536.041992	12958.198242
3534.800781	12933.776367
3533.558594	12797.541016
3532.316406	12849.022461
3531.074219	13060.166992
3529.831055	12702.463867
3528.587891	12702.053711
3527.344727	12747.526367
3526.101563	12852.817383
3524.858398	12696.833008
3523.614258	12556.856445
3522.370117	12594.345703
3521.125977	12695.597656
3519.880859	12621.457031
3518.636719	12563.282227
3517.391602	12672.448242
3516.146484	12701.911133
3514.900391	12731.362305
3513.655273	12537.835938
3512.409180	12642.940430
3511.163086	12527.114258
3509.916016	12520.759766
3508.669922	12303.546875
3507.422852	12525.958008
3506.175781	12477.847656
3504.927734	12346.253906
3503.680664	12328.010742
3502.432617	12357.470703
3501.184570	12243.856445
3499.935547	12251.466797
3498.687500	12235.240234
3497.438477	12369.943359
3496.189453	12153.165039
3494.940430	12329.519531
3493.690430	12333.134766
3492.441406	12174.030273
3491.190430	12169.736328
3489.940430	12248.754883
3488.690430	12147.269531
3487.439453	12196.518555
3486.188477	12172.396484
3484.937500	12114.586914
3483.685547	12225.246094
3482.434570	12254.626953
3481.182617	11982.888672
3479.929688	12135.099609
3478.677734	11950.616211
3477.424805	11875.092773
3476.171875	12130.167969
3474.918945	12100.157227
3473.666016	11989.030273
3472.412109	12061.929688
3471.158203	12008.211914
3469.904297	12075.146484
3468.650391	12007.604492
3467.395508	11857.061523
3466.140625	11908.172852
3464.885742	11903.934570
3463.630859	11810.790039
3462.375000	11771.013672
3461.119141	11749.027344
3459.863281	11594.751953
3458.607422	11728.768555
3457.350586	11821.283203
3456.093750	11799.301758
3454.836914	11751.677734
3453.580078	11619.244141
3452.322266	11770.876953
3451.064453	11741.032227
3449.806641	11652.049805
3448.548828	11687.287109
3447.291016	11698.860352
3446.032227	11586.289063
3444.773438	11477.701172
3443.513672	11440.063477
3442.254883	11493.028320
3440.995117	11595.197266
3439.735352	11362.666992
3438.475586	11543.547852
3437.214844	11521.673828
3435.955078	11488.001953
3434.694336	11466.144531
3433.432617	11406.927734
3432.171875	11404.756836
3430.910156	11310.185547
3429.648438	11353.241211
3428.386719	11229.236328
3427.124023	11510.036133
3425.862305	11556.956055
3424.599609	11440.838867
3423.335938	11295.308594
3422.073242	11220.513672
3420.809570	11263.525391
3419.545898	11184.838867
3418.282227	11269.045898
3417.018555	11135.456055
3415.753906	11486.400391
3414.489258	11080.225586
3413.224609	11111.446289
3411.958984	10976.025391
3410.694336	11042.533203
3409.428711	11109.015625
3408.163086	11167.634766
3406.896484	10969.620117
3405.629883	11179.045898
3404.364258	11090.758789
3403.096680	11072.982422
3401.830078	11092.402344
3400.562500	11019.835938
3399.294922	11011.865234
3398.027344	11005.853516
3396.759766	11109.372070
3395.491211	10829.572266
3394.222656	10907.666992
3392.954102	10848.898438
3391.685547	10860.509766
3390.416016	10829.128906
3389.146484	10889.579102
3387.876953	10733.193359
3386.607422	10832.696289
3385.336914	10725.193359
3384.066406	10629.444336
3382.795898	10961.168945
3381.525391	10996.154297
3380.253906	10771.637695
3378.982422	10830.052734
3377.710938	10738.272461
3376.439453	10547.081055
3375.166992	10632.796875
3373.894531	10745.767578
3372.622070	10644.328125
3371.349609	10630.604492
3370.076172	10811.691406
3368.802734	10595.381836
3367.529297	10671.250977
3366.255859	10710.098633
3364.981445	10643.816406
3363.707031	10548.366211
3362.432617	10482.138672
3361.158203	10653.281250
3359.882813	10513.145508
3358.607422	10569.478516
3357.332031	10359.415039
3356.056641	10524.616211
3354.780273	10543.984375
3353.503906	10475.899414
3352.227539	10615.725586
3350.951172	10411.678711
3349.673828	10462.125000
3348.396484	10407.698242
3347.119141	10500.835938
3345.841797	10421.188477
3344.563477	10263.945313
3343.285156	10492.873047
3342.006836	10254.201172
3340.728516	10353.094727
3339.449219	10370.505859
3338.169922	10285.155273
3336.890625	10316.140625
3335.611328	10261.840820
3334.331055	10248.250977
3333.050781	10364.464844
3331.770508	10308.248047
3330.490234	10228.814453
3329.208984	10306.240234
3327.927734	10199.734375
3326.646484	10306.166016
3325.365234	10141.648438
3324.083008	10329.306641
3322.800781	10172.583984
3321.518555	10108.750000
3320.236328	10070.077148
3318.953125	10331.065430
3317.669922	10151.265625
3316.386719	10178.309570
3315.103516	10062.366211
3313.819336	10290.314453
3312.535156	10158.943359
3311.250977	10106.791016
3309.966797	10010.254883
3308.681641	10176.269531
3307.396484	10077.825195
3306.111328	10131.850586
3304.826172	9881.049805
3303.540039	9977.524414
3302.253906	10195.449219
3300.967773	9971.772461
3299.681641	10110.580078
3298.394531	10231.989258
3297.107422	9863.913086
3295.820313	10122.106445
3294.532227	10002.668945
3293.245117	10016.157227
3291.957031	10073.925781
3290.668945	9894.887695
3289.379883	9968.053711
3288.091797	9798.724609
3286.802734	10008.481445
3285.512695	9823.820313
3284.223633	10021.951172
3282.933594	9821.974609
3281.643555	10089.239258
3280.353516	9868.181641
3279.063477	9939.314453
3277.772461	9764.482422
3276.481445	9758.767578
3275.190430	9845.244141
3273.898438	9889.441406
3272.607422	9860.665039
3271.315430	9805.024414
3270.022461	9952.837891
3268.730469	9759.046875
3267.437500	9820.481445
3266.144531	9820.514648
3264.851563	9716.990234
3263.557617	9914.527344
3262.264648	9649.999023
3260.970703	9659.645508
3259.675781	9606.051758
3258.381836	9730.654297
3257.086914	9870.531250
3255.791992	9964.391602
3254.497070	9550.804688
3253.201172	9656.174805
3251.905273	9884.001953
3250.609375	9606.537109
3249.313477	9704.181641
3248.016602	9558.847656
3246.720703	9633.512695
3245.423828	9576.208008
3244.125977	9742.607422
3242.829102	9792.343750
3241.531250	9520.999023
3240.233398	9763.739258
3238.934570	9502.054688
3237.636719	9511.687500
3236.337891	9742.831055
3235.039063	9613.038086
3233.739258	9601.645508
3232.440430	9601.707031
3231.140625	9590.319336
3229.840820	9605.644531
3228.540039	9529.407227
3227.240234	9365.475586
3225.939453	9377.020508
3224.638672	9478.157227
3223.336914	9510.639648
3222.035156	9518.337891
3220.734375	9407.909180
3219.431641	9347.047852
3218.129883	9476.658203
3216.827148	9541.477539
3215.524414	9509.180664
3214.221680	9334.142578
3212.918945	9370.406250
3211.615234	9494.175781
3210.311523	9357.286133
3209.007813	9323.152344
3207.703125	9538.131836
3206.398438	9211.194336
3205.093750	9395.699219
3203.789063	9194.342773
3202.483398	9259.074219
3201.178711	9179.402344
3199.873047	9388.460938
3198.566406	9111.300781
3197.260742	9113.341797
3195.954102	9248.259766
3194.647461	9218.008789
3193.340820	9225.719727
3192.033203	9294.136719
3190.725586	9298.035156
3189.417969	9336.067383
3188.110352	9152.247070
3186.801758	9167.542969
3185.493164	9146.822266
3184.184570	9175.377930
3182.875000	9114.875977
3181.566406	9137.743164
3180.256836	9255.293945
3178.947266	9020.609375
3177.636719	9164.640625
3176.327148	8977.381836
3175.016602	8969.972656
3173.705078	9144.201172
3172.394531	8864.361328
3171.083008	9106.628906
3169.771484	9186.182617
3168.459961	8880.027344
3167.147461	9063.553711
3165.835938	9069.364258
3164.523438	8982.586914
3163.209961	8958.183594
3161.897461	8897.902344
3160.583984	8892.408203
3159.270508	8903.907227
3157.957031	8737.961914
3156.642578	8875.934570
3155.328125	8844.029297
3154.013672	8829.115234
3152.699219	8819.865234
3151.383789	8763.472656
3150.068359	8988.036133
3148.752930	8810.984375
3147.437500	8745.201172
3146.121094	8867.880859
3144.804688	8749.358398
3143.488281	8807.944336
3142.170898	8747.860352
3140.854492	8764.999023
3139.537109	8678.589844
3138.218750	8855.720703
3136.901367	8855.890625
3135.583008	8681.083984
3134.264648	8899.494141
3132.946289	8901.535156
3131.626953	8732.460938
3130.308594	8670.611328
3128.988281	8772.315430
3127.668945	8543.225586
3126.349609	8534.057617
3125.029297	8733.413086
3123.708984	8549.538086
3122.387695	8857.726563
3121.067383	8632.594727
3119.746094	8640.309570
3118.424805	8674.295898
3117.102539	8764.559570
3115.780273	8582.766602
3114.458984	8620.494141
3113.135742	8596.322266
3111.813477	8656.531250
3110.490234	8585.496094
3109.166992	8553.846680
3107.843750	8565.307617
3106.519531	8591.751953
3105.196289	8533.894531
3103.872070	8710.153320
3102.546875	8581.144531
3101.222656	8540.169922
3099.897461	8508.569336
3098.572266	8557.446289
3097.246094	8675.528320
3095.920898	8505.497070
3094.594727	8507.588867
3093.268555	8642.439453
3091.941406	8614.592773
3090.615234	8644.698242
3089.288086	8566.404297
3087.960938	8499.349609
3086.632813	8723.735352
3085.304688	8503.526367
3083.976563	8556.030273
3082.648438	8535.702148
3081.320313	8664.708008
3079.991211	8571.583008
3078.662109	8420.651367
3077.333008	8394.767578
3076.002930	8460.284180
3074.672852	8389.647461
3073.342773	8574.461914
3072.012695	8580.254883
3070.681641	8312.082031
3069.350586	8282.519531
3068.019531	8402.005859
3066.688477	8454.391602
3065.356445	8335.429688
3064.024414	8439.939453
3062.692383	8421.547852
3061.359375	8472.026367
3060.027344	8334.542969
3058.694336	8437.110352
3057.360352	8314.567383
3056.027344	8331.550781
3054.693359	8476.822266
3053.359375	8315.302734
3052.025391	8421.489258
3050.690430	8421.711914
3049.355469	8154.394531
3048.020508	8347.854492
3046.685547	8323.946289
3045.349609	8314.902344
3044.013672	8209.325195
3042.677734	8319.096680
3041.340820	8323.047852
3040.004883	8278.756836
3038.667969	8197.381836
3037.330078	8414.640625
3035.993164	8394.461914
3034.655273	8489.236328
3033.317383	8233.644531
3031.979492	8243.163086
3030.640625	8185.975098
3029.301758	8160.300781
3027.962891	8317.999023
3026.624023	8242.310547
3025.284180	8170.353516
3023.944336	8059.551758
3022.604492	8263.413086
3021.263672	8086.022949
3019.923828	8274.999023
3018.583008	8125.419434
3017.241211	8075.757813
3015.900391	8333.034180
3014.558594	8203.863281
3013.216797	8091.375488
3011.875000	8220.997070
3010.532227	8075.294922
3009.189453	8014.615723
3007.846680	8051.837891
3006.503906	8223.831055
3005.160156	8139.159180
3003.816406	8054.519531
3002.472656	8088.012695
3001.128906	8066.143555
2999.784180	8138.356934
2998.439453	8007.675781
2997.094727	8044.837891
2995.749023	8021.148926
2994.403320	7964.291992
2993.057617	8006.968262
2991.711914	8112.270020
2990.365234	7939.375977
2989.018555	7934.145996
2987.671875	8120.419434
2986.325195	8023.104980
2984.977539	8065.717285
2983.629883	7937.165527
2982.282227	7908.020020
2980.933594	7987.419922
2979.585938	7838.726074
2978.237305	7816.970703
2976.887695	8072.836426
2975.539063	7806.570801
2974.189453	8003.529297
2972.839844	7932.146484
2971.489258	8027.964355
2970.139648	8008.031738
2968.789063	7927.507324
2967.438477	7938.812988
2966.086914	7970.306152
2964.735352	7891.669922
2963.383789	7813.063965
2962.032227	7727.150391
2960.680664	7777.000488
2959.328125	7762.645996
2957.975586	7750.130371
2956.622070	7834.774902
2955.269531	7754.437012
2953.916016	7868.365723
2952.562500	7753.242676
2951.208008	7790.194824
2949.854492	7671.468750
2948.500000	7821.942383
2947.144531	7752.682129
2945.790039	7668.806641
2944.434570	7771.613770
2943.079102	7823.152832
2941.723633	7753.945313
2940.367188	7549.430176
2939.010742	7749.087891
2937.654297	7806.074219
2936.297852	7828.310547
2934.940430	7768.304199
2933.583008	7717.456055
2932.225586	7619.133301
2930.867188	7482.495605
2929.508789	7703.803223
2928.150391	7569.026855
2926.791992	7810.308105
2925.432617	7655.489258
2924.074219	7732.448242
2922.713867	7694.453125
2921.354492	7716.658691
2919.994141	7702.385742
2918.633789	7635.247070
2917.273438	7571.779785
2915.913086	7586.700684
2914.551758	7585.217285
2913.190430	7478.075195
2911.829102	7780.776855
2910.466797	7571.662109
2909.104492	7763.167969
2907.742188	7555.958008
2906.379883	7660.035156
2905.016602	7633.062500
2903.653320	7566.077148
2902.290039	7620.980957
2900.925781	7526.746582
2899.562500	7443.457031
2898.197266	7621.960449
2896.833008	7724.062012
2895.468750	7666.220703
2894.103516	7573.883789
2892.738281	7488.848633
2891.372070	7554.574219
2890.005859	7478.653320
2888.640625	7584.291016
2887.273438	7577.360840
2885.907227	7584.949707
2884.540039	7672.360840
2883.172852	7640.022461
2881.805664	7440.852539
2880.437500	7441.208008
2879.069336	7412.557617
2877.701172	7400.230469
2876.333008	7435.022461
2874.963867	7527.775879
2873.594727	7366.898438
2872.225586	7443.329102
2870.855469	7530.592773
2869.485352	7462.134766
2868.115234	7312.254883
2866.745117	7479.115234
2865.374023	7468.602539
2864.002930	7488.844727
2862.631836	7494.610352
2861.260742	7422.621094
2859.888672	7462.745605
2858.516602	7466.704102
2857.144531	7308.019531
2855.771484	7380.663574
2854.398438	7435.214355
2853.025391	7459.040527
2851.652344	7369.097656
2850.278320	7322.517578
2848.904297	7357.180664
2847.530273	7350.322754
2846.156250	7320.011230
2844.781250	7331.202148
2843.406250	7288.280762
2842.030273	7333.733887
2840.655273	7270.996582
2839.279297	7406.560547
2837.903320	7158.208984
2836.526367	7336.984863
2835.150391	7274.294434
2833.773438	7418.755371
2832.395508	7204.809570
2831.018555	7129.578125
2829.640625	7255.980469
2828.262695	7218.561523
2826.884766	7163.163086
2825.505859	7330.860352
2824.126953	7295.245605
2822.748047	7135.563965
2821.368164	7143.150879
2819.989258	7330.492188
2818.609375	7179.882324
2817.228516	7243.158203
2815.848633	7286.646973
2814.467773	7256.476074
2813.086914	7186.808594
2811.705078	7066.895996
2810.324219	7137.310059
2808.942383	7243.591309
2807.559570	7118.353516
2806.177734	7109.777344
2804.794922	7086.854980
2803.412109	7080.080566
2802.029297	7155.786133
2800.645508	7224.291016
2799.261719	7023.926758
2797.877930	7092.429688
2796.493164	7080.284668
2795.109375	7118.298340
2793.724609	7206.440430
2792.338867	7133.401855
2790.954102	6942.240723
2789.568359	7098.376953
2788.182617	7034.348633
2786.795898	7100.949707
2785.409180	7085.241699
2784.022461	6955.082031
2782.635742	6919.739258
2781.249023	7047.090820
2779.861328	6970.634277
2778.473633	7017.510254
2777.084961	6866.050293
2775.697266	7036.181152
2774.308594	6929.424805
2772.918945	6961.985840
2771.530273	6978.466309
2770.140625	7062.765137
2768.750977	6941.810059
2767.361328	6940.442383
2765.970703	6906.965332
2764.580078	6923.438965
2763.189453	6972.001465
2761.797852	6936.754395
2760.407227	6890.826172
2759.015625	6978.571289
2757.623047	6864.947266
2756.231445	6876.062988
2754.838867	6874.707031
2753.446289	6673.916992
2752.052734	6750.934570
2750.659180	6813.681152
2749.265625	6897.758301
2747.872070	6869.708496
2746.478516	6857.679688
2745.083984	6811.862793
2743.689453	6876.312500
2742.293945	6606.499512
2740.898438	6791.833496
2739.502930	6850.916504
2738.107422	6835.349609
2736.711914	6812.683105
2735.315430	6813.114258
2733.918945	6692.793945
2732.521484	6728.755859
2731.125000	6739.853027
2729.727539	6837.904785
2728.329102	6804.616211
2726.931641	6728.764648
2725.533203	6805.476074
2724.134766	6687.094238
2722.736328	6772.647949
2721.336914	6767.764648
2719.937500	6784.149902
2718.538086	6859.000977
2717.137695	6637.974121
2715.737305	6737.620605
2714.336914	6624.726074
2712.936523	6740.269531
2711.535156	6671.671387
2710.133789	6629.647461
2708.732422	6646.031250
2707.331055	6667.715820
2705.928711	6588.572754
2704.526367	6624.406250
2703.124023	6697.354492
2701.720703	6607.645020
2700.317383	6639.917969
2698.914063	6658.041504
2697.509766	6690.291016
2696.106445	6763.152344
2694.702148	6454.539063
2693.296875	6631.587891
2691.892578	6524.360840
2690.487305	6558.367676
2689.082031	6504.133301
2687.675781	6605.169922
2686.269531	6446.879883
2684.863281	6590.211426
2683.457031	6724.669434
2682.049805	6518.853027
2680.642578	6517.562500
2679.235352	6634.333496
2677.828125	6421.608887
2676.419922	6628.183594
2675.011719	6538.817871
2673.603516	6505.830078
2672.194336	6596.080566
2670.785156	6508.533203
2669.375977	6538.917969
2667.965820	6407.433105
2666.556641	6483.558594
2665.146484	6543.825684
2663.735352	6398.350586
2662.325195	6476.189453
2660.914063	6487.208984
2659.502930	6287.356445
2658.090820	6472.339355
2656.678711	6432.413086
2655.266602	6480.311035
2653.854492	6433.374512
2652.441406	6509.340332
2651.029297	6427.313477
2649.615234	6489.211426
2648.202148	6193.178711
2646.788086	6323.507324
2645.374023	6373.111816
2643.959961	6331.519531
2642.544922	6384.607910
2641.129883	6495.514648
2639.714844	6450.416992
2638.298828	6289.704590
2636.883789	6321.738281
2635.467773	6378.276855
2634.050781	6261.447754
2632.634766	6303.970215
2631.217773	6328.973145
2629.799805	6332.966797
2628.382813	6149.753906
2626.964844	6302.464844
2625.546875	6234.756348
2624.128906	6324.441895
2622.709961	6130.885742
2621.291016	6286.973633
2619.872070	6151.168457
2618.452148	6233.809570
2617.032227	6195.888672
2615.612305	6274.994629
2614.192383	6375.021973
2612.771484	6171.247559
2611.350586	6178.748535
2609.929688	6123.423828
2608.508789	6176.293457
2607.086914	6110.524414
2605.665039	6112.797852
2604.242188	6074.965820
2602.819336	6080.731445
2601.396484	6163.186035
2599.973633	6193.328125
2598.550781	6044.002441
2597.126953	6082.865234
2595.703125	6158.285645
2594.278320	6117.012695
2592.853516	6079.236816
2591.428711	6031.032715
2590.003906	6149.907715
2588.578125	6164.343262
2587.153320	6084.838379
2585.726563	6092.323730
2584.300781	6054.596191
2582.874023	6008.190918
2581.447266	6118.236328
2580.020508	6070.098145
2578.592773	5978.542969
2577.165039	5895.709473
2575.737305	6036.949707
2574.308594	6013.174805
2572.880859	5989.408691
2571.451172	5939.616211
2570.022461	5915.874023
2568.592773	5895.610840
2567.163086	5956.884766
2565.733398	5922.746094
2564.303711	5866.079102
2562.873047	5825.037109
2561.442383	5955.606934
2560.010742	5911.096680
2558.579102	5941.105957
2557.147461	5915.670898
2555.715820	5909.296387
2554.284180	5831.929688
2552.851563	5851.541992
2551.417969	5734.406738
2549.985352	5799.023926
2548.551758	5754.613281
2547.118164	5729.248535
2545.684570	5866.466309
2544.250000	5745.984863
2542.815430	5717.178223
2541.380859	5838.759277
2539.945313	5773.654297
2538.510742	5819.152832
2537.075195	5792.080566
2535.638672	5792.652344
2534.202148	5705.159668
2532.765625	5804.152832
2531.329102	5747.761230
2529.892578	5786.305664
2528.455078	5757.544922
2527.017578	5792.621582
2525.579102	5672.462891
2524.140625	5690.298340
2522.702148	5647.787109
2521.263672	5786.274902
2519.824219	5659.318848
2518.384766	5682.310059
2516.945313	5595.044922
2515.505859	5707.597656
2514.065430	5616.917969
2512.625000	5682.937500
2511.183594	5676.639160
2509.743164	5742.620117
2508.301758	5713.944336
2506.859375	5468.533691
2505.417969	5618.788574
2503.975586	5602.190430
2502.533203	5685.310547
2501.089844	5570.731934
2499.646484	5550.715332
2498.203125	5676.748535
2496.759766	5550.214355
2495.315430	5717.416016
2493.871094	5608.094727
2492.426758	5471.348633
2490.982422	5487.418945
2489.537109	5438.271484
2488.091797	5541.844238
2486.645508	5530.443848
2485.200195	5553.348633
2483.752930	5505.940430
2482.306641	5523.697266
2480.860352	5495.167969
2479.413086	5526.628906
2477.964844	5551.223145
2476.517578	5486.731445
2475.069336	5477.070313
2473.621094	5409.194336
2472.172852	5305.393555
2470.723633	5436.126953
2469.274414	5411.081055
2467.825195	5403.154297
2466.375000	5391.808594
2464.924805	5412.962891
2463.474609	5418.718750
2462.024414	5369.765625
2460.573242	5454.151855
2459.122070	5429.135254
2457.669922	5342.620605
2456.218750	5353.507813
2454.766602	5485.648926
2453.314453	5371.853516
2451.861328	5290.540039
2450.408203	5446.508789
2448.955078	5334.495605
2447.501953	5324.895996
2446.047852	5294.830078
2444.593750	5208.495605
2443.138672	5318.285156
2441.684570	5216.636719
2440.229492	5193.433105
2438.774414	5323.607910
2437.318359	5361.727051
2435.862305	5156.242188
2434.406250	5122.849609
2432.950195	5293.798340
2431.493164	5267.200684
2430.036133	5249.124023
2428.579102	5234.457520
2427.121094	5190.873047
2425.663086	5232.357422
2424.205078	5229.607422
2422.746094	4993.910645
2421.287109	5161.208496
2419.828125	5183.968262
2418.369141	5174.431152
2416.909180	5034.076660
2415.449219	5214.820313
2413.989258	5205.282227
2412.528320	5042.931641
2411.067383	5011.361816
2409.606445	5064.668457
2408.144531	5133.226074
2406.683594	5052.455078
2405.220703	5110.809570
2403.757813	5016.507813
2402.296875	5044.325195
2400.833984	4939.902832
2399.369141	5006.706055
2397.906250	4937.918457
2396.443359	5040.272949
2394.978516	5027.403320
2393.513672	4995.909180
2392.048828	4991.519043
2390.583984	5012.522949
2389.119141	5026.748047
2387.654297	4893.748535
2386.187500	4929.984863
2384.720703	4971.281250
2383.255859	4992.266602
2381.789063	4918.558105
2380.320313	4893.902832
2378.853516	4953.763184
2377.386719	4878.416016
2375.917969	5029.485352
2374.449219	4835.915527
2372.982422	4900.804688
2371.513672	4935.275879
2370.042969	4915.713867
2368.574219	4857.341309
2367.105469	4881.675293
2365.634766	4860.447754
2364.164063	4775.133301
2362.693359	4740.444336
2361.222656	4761.408691
2359.751953	4795.850586
2358.279297	4799.940918
2356.808594	4815.825195
2355.335938	4777.792480
2353.863281	4840.835938
2352.390625	4703.455566
2350.917969	4727.763672
2349.445313	4789.094727
2347.970703	4645.075684
2346.498047	4684.523438
2345.023438	4715.543945
2343.548828	4679.272461
2342.074219	4881.808594
2340.599609	4711.013184
2339.123047	4710.063965
2337.648438	4700.711426
2336.171875	4674.560059
2334.695313	4708.896484
2333.218750	4595.413574
2331.742188	4769.131348
2330.265625	4563.340332
2328.787109	4733.636719
2327.310547	4576.604492
2325.832031	4651.187988
2324.353516	4688.834473
2322.875000	4570.481934
2321.396484	4693.650879
2319.917969	4645.760254
2318.437500	4768.863770
2316.957031	4635.506836
2315.478516	4606.086914
2313.998047	4585.055176
2312.517578	4594.179199
2311.035156	4621.719238
2309.554688	4542.099121
2308.072266	4628.223145
2306.591797	4563.695313
2305.109375	4474.095215
2303.626953	4655.532227
2302.142578	4554.241699
2300.660156	4479.746582
2299.177734	4428.687012
2297.693359	4536.439941
2296.208984	4560.591309
2294.724609	4541.291016
2293.240234	4431.792480
2291.755859	4460.959961
2290.269531	4556.907715
2288.785156	4434.115723
2287.298828	4441.565430
2285.812500	4494.069336
2284.326172	4378.037598
2282.839844	4405.510742
2281.353516	4411.291504
2279.865234	4475.430664
2278.376953	4332.821289
2276.890625	4416.951172
2275.402344	4372.730469
2273.914063	4306.868652
2272.423828	4377.625488
2270.935547	4298.465332
2269.445313	4320.907227
2267.957031	4316.704102
2266.466797	4309.173340
2264.976563	4394.833496
2263.484375	4329.058594
2261.994141	4316.539063
2260.503906	4325.644043
2259.011719	4279.875000
2257.519531	4347.166992
2256.027344	4221.632813
2254.535156	4343.746094
2253.042969	4271.427246
2251.548828	4152.627930
2250.056641	4273.019531
2248.562500	4265.513184
2247.068359	4277.929688
2245.574219	4205.696289
2244.080078	4131.832031
2242.583984	4140.949707
2241.089844	4186.554688
2239.593750	4149.222656
2238.097656	4131.801758
2236.601563	4208.876465
2235.105469	4275.975098
2233.609375	4217.113281
2232.113281	4227.855469
2230.615234	4119.336426
2229.117188	4184.741699
2227.619141	4178.926758
2226.121094	4082.070068
2224.623047	4107.722656
2223.125000	4091.998047
2221.625000	4092.822754
2220.125000	4144.920898
2218.626953	4165.578125
2217.126953	4037.427002
2215.625000	4015.119385
2214.125000	4141.559570
2212.625000	4011.838623
2211.123047	4053.976563
2209.621094	4115.916992
2208.119141	3978.022705
2206.617188	4001.980225
2205.115234	3979.709717
2203.611328	4044.914795
2202.109375	4037.493896
2200.605469	4008.630615
2199.101563	3973.181641
2197.597656	3934.448730
2196.093750	4009.487305
2194.589844	4039.991211
2193.083984	4040.818848
2191.580078	3936.197510
2190.074219	3912.335938
2188.568359	3934.599121
2187.062500	3881.107910
2185.554688	3799.651123
2184.048828	3974.997070
2182.541016	3835.957031
2181.035156	3826.951172
2179.527344	3865.652588
2178.019531	3891.181152
2176.509766	3919.987793
2175.001953	3958.645996
2173.494141	3947.979736
2171.984375	3876.516113
2170.474609	3916.802002
2168.964844	3797.737061
2167.455078	3893.859863
2165.943359	3789.625244
2164.433594	3836.461670
2162.921875	3809.420898
2161.412109	3744.649170
2159.900391	3868.574463
2158.386719	3838.262695
2156.875000	3919.479248
2155.363281	3823.584229
2153.849609	3808.052979
2152.335938	3825.306641
2150.824219	3860.577881
2149.310547	3825.388184
2147.794922	3780.385254
2146.281250	3732.125000
2144.765625	3741.188965
2143.251953	3789.535889
2141.736328	3785.491455
2140.220703	3748.722412
2138.705078	3744.687256
2137.187500	3680.135986
2135.671875	3739.891846
2134.154297	3619.779053
2132.636719	3795.580322
2131.121094	3700.018799
2129.601563	3767.891113
2128.083984	3677.274658
2126.566406	3723.890869
2125.046875	3732.929688
2123.527344	3639.109863
2122.007813	3684.072266
2120.488281	3657.210205
2118.968750	3778.836670
2117.449219	3624.725098
2115.927734	3635.403076
2114.408203	3698.256348
2112.886719	3762.714111
2111.365234	3665.779297
2109.843750	3674.809570
2108.320313	3561.638916
2106.798828	3686.342773
2105.275391	3618.817139
2103.751953	3624.592041
2102.228516	3566.874023
2100.705078	3595.443848
2099.181641	3549.145752
2097.656250	3628.143311
2096.132813	3502.151855
2094.607422	3564.863037
2093.082031	3453.569336
2091.556641	3454.490234
2090.031250	3630.943848
2088.503906	3521.329102
2086.978516	3538.481445
2085.451172	3515.018555
2083.923828	3576.012451
2082.396484	3546.056396
2080.869141	3483.646240
2079.341797	3513.771484
2077.812500	3514.676514
2076.283203	3432.842285
2074.755859	3482.423096
2073.226563	3428.196777
2071.697266	3382.099121
2070.166016	3460.837158
2068.636719	3458.509277
2067.105469	3524.236328
2065.574219	3410.115723
2064.042969	3448.291016
2062.511719	3441.108643
2060.980469	3364.311768
2059.447266	3407.328369
2057.916016	3379.119873
2056.382813	3370.338867
2054.849609	3348.619629
2053.316406	3313.970215
2051.783203	3361.803467
2050.248047	3343.332275
2048.714844	3299.006348
2047.179688	3251.466553
2045.644531	3367.132324
2044.109375	3369.674072
2042.574219	3318.918213
2041.039063	3337.615723
2039.501953	3345.004639
2037.964844	3161.932129
2036.429688	3269.404297
2034.892578	3334.884277
2033.353516	3277.744385
2031.816406	3280.298828
2030.279297	3274.790039
2028.740234	3203.188477
2027.201172	3147.733154
2025.662109	3213.156494
2024.123047	3270.497559
2022.583984	3256.941650
2021.042969	3214.403564
2019.503906	3270.098389
2017.962891	3176.062256
2016.421875	3178.630371
2014.880859	3137.751465
2013.337891	3093.671631
2011.796875	3163.809082
2010.253906	3126.174072
2008.712891	3130.356689
2007.169922	3086.313965
2005.626953	3119.430908
2004.082031	3175.029297
2002.539063	3121.364746
2000.994141	3186.576416
1999.451172	3137.748779
1997.906250	3212.562744
1996.361328	3109.174316
1994.816406	3103.722168
1993.269531	3159.242920
1991.724609	3225.969482
1990.177734	3071.339844
1988.630859	3057.881592
1987.083984	3119.778076
1985.537109	3034.187012
1983.990234	3062.409668
1982.441406	3047.361328
1980.892578	3005.087646
1979.343750	3010.876953
1977.794922	3067.902100
1976.246094	2996.833740
1974.697266	2969.009277
1973.146484	2994.003174
1971.597656	2967.790039
1970.046875	3055.156250
1968.496094	3033.738770
1966.945313	3004.335449
1965.394531	2976.542725
1963.841797	2953.555664
1962.289063	2943.361572
1960.738281	2912.402588
1959.185547	2983.680908
1957.632813	2922.384277
1956.078125	3011.193359
1954.525391	2986.630371
1952.970703	3014.743652
1951.416016	2958.277344
1949.863281	2914.596191
1948.306641	2952.276123
1946.751953	2873.531982
1945.197266	2885.695557
1943.640625	2937.703613
1942.083984	2823.950195
1940.527344	2893.475586
1938.970703	2846.683594
1937.414063	2842.912598
1935.857422	2888.505615
1934.298828	2864.031006
1932.740234	2914.375732
1931.181641	2889.905762
1929.623047	2836.806885
1928.064453	2883.944336
1926.505859	2857.904541
1924.945313	2811.205078
1923.384766	2809.036621
1921.826172	2852.961182
1920.263672	2852.374023
1918.703125	2878.795166
1917.142578	2848.022461
1915.580078	2760.091309
1914.019531	2835.735352
1912.457031	2778.003662
1910.894531	2801.238037
1909.330078	2811.768311
1907.767578	2781.046631
1906.203125	2829.643311
1904.640625	2783.072266
1903.076172	2715.909180
1901.511719	2804.117432
1899.947266	2651.396973
1898.380859	2695.216309
1896.816406	2761.195557
1895.250000	2686.186035
1893.683594	2805.979004
1892.117188	2678.745850
1890.550781	2738.342041
1888.984375	2695.049072
1887.416016	2724.554932
1885.847656	2676.536865
1884.281250	2690.218750
1882.712891	2688.082520
1881.142578	2665.395264
1879.574219	2674.328857
1878.003906	2645.332764
1876.435547	2700.083984
1874.865234	2634.763428
1873.294922	2730.554932
1871.724609	2662.096924
1870.152344	2636.289551
1868.582031	2730.442871
1867.009766	2581.550537
1865.437500	2615.725586
1863.865234	2604.144287
1862.292969	2587.836670
1860.720703	2577.842285
1859.146484	2627.752441
1857.574219	2546.833252
1856.000000	2680.240479
1854.425781	2583.589844
1852.851563	2668.107910
1851.275391	2614.016602
1849.701172	2553.649902
1848.125000	2573.584961
1846.548828	2607.675049
1844.972656	2493.850830
1843.396484	2520.077881
1841.820313	2532.138916
1840.242188	2517.463623
1838.664063	2590.832031
1837.087891	2525.853271
1835.509766	2534.759766
1833.929688	2504.384033
1832.351563	2518.003418
1830.773438	2548.892334
1829.193359	2474.567627
1827.613281	2477.195557
1826.033203	2460.988037
1824.453125	2518.538574
1822.871094	2472.520508
1821.291016	2522.201904
1819.708984	2418.178223
1818.126953	2485.096680
1816.544922	2432.853027
1814.962891	2468.395752
1813.380859	2380.137695
1811.796875	2417.243164
1810.214844	2430.838867
1808.630859	2377.093750
1807.046875	2462.710205
1805.460938	2462.200195
1803.876953	2521.158936
1802.292969	2381.383789
1800.707031	2412.176758
1799.121094	2433.572998
1797.535156	2422.123047
1795.949219	2354.397461
1794.361328	2394.548096
1792.775391	2403.427979
1791.187500	2406.054688
1789.599609	2343.073975
1788.011719	2336.341553
1786.423828	2306.190430
1784.835938	2405.621338
1783.246094	2445.702393
1781.656250	2295.393799
1780.066406	2351.081787
1778.476563	2367.751709
1776.886719	2368.820068
1775.296875	2411.984619
1773.705078	2363.161133
1772.113281	2350.202881
1770.523438	2316.993896
1768.929688	2367.922119
1767.337891	2375.218262
1765.746094	2384.068604
1764.152344	2336.867676
1762.558594	2308.364746
1760.966797	2359.240967
1759.371094	2326.077393
1757.777344	2350.483643
1756.183594	2272.232910
1754.587891	2304.414795
1752.992188	2266.625488
1751.396484	2292.577637
1749.800781	2222.173096
1748.205078	2314.930176
1746.609375	2256.976318
1745.011719	2284.461670
1743.414063	2304.171875
1741.816406	2205.894775
1740.218750	2224.060791
1738.621094	2246.874268
1737.021484	2306.911377
1735.423828	2176.142578
1733.824219	2268.734619
1732.224609	2223.301025
1730.625000	2196.487061
1729.023438	2211.528320
1727.423828	2198.672852
1725.822266	2209.059570
1724.220703	2179.172852
1722.619141	2218.980225
1721.017578	2139.562500
1719.416016	2174.717773
1717.812500	2175.812744
1716.210938	2203.209717
1714.607422	2128.501221
1713.003906	2158.989502
1711.400391	2214.204590
1709.794922	2141.086182
1708.191406	2134.458008
1706.585938	2214.367676
1704.980469	2153.654053
1703.375000	2134.670166
1701.769531	2129.592773
1700.164063	2105.989746
1698.556641	2176.559570
1696.949219	2078.875977
1695.341797	2118.561523
1693.734375	2087.266357
1692.126953	2088.374023
1690.519531	2004.668091
1688.910156	2159.965332
1687.300781	2145.642578
1685.691406	2035.778320
1684.082031	2033.813232
1682.472656	2027.227661
1680.861328	2029.885376
1679.251953	2107.992432
1677.640625	2067.526367
1676.029297	2122.505371
1674.417969	2052.814941
1672.806641	2050.848389
1671.193359	2058.111816
1669.580078	1988.478027
1667.968750	2041.877930
1666.355469	1976.888062
1664.740234	1988.770996
1663.126953	2106.674072
1661.513672	2035.565918
1659.898438	2012.101929
1658.283203	2014.753418
1656.667969	2094.169434
1655.052734	1989.352661
1653.435547	2051.859131
1651.820313	2077.514893
1650.203125	1948.222412
1648.585938	1987.692261
1646.968750	1996.477661
1645.351563	2005.259277
1643.732422	2061.552490
1642.115234	1918.605713
1640.496094	2053.031006
1638.876953	1972.948975
1637.257813	1993.977539
1635.638672	2011.934814
1634.017578	2025.291992
1632.398438	1991.197632
1630.777344	2036.687378
1629.156250	2039.321533
1627.535156	1950.181274
1625.912109	1975.770630
1624.291016	1923.374634
1622.667969	1996.345215
1621.044922	1966.890625
1619.421875	1940.504150
1617.798828	1982.872314
1616.175781	1929.001587
1614.550781	1965.246094
1612.927734	1932.774902
1611.302734	2008.688599
1609.677734	1970.117554
1608.050781	1989.539795
1606.425781	1946.412354
1604.798828	1917.028564
1603.173828	1870.884521
1601.546875	1929.946411
1599.919922	1952.404419
1598.291016	1990.090942
1596.664063	1948.540283
1595.035156	1890.251953
1593.406250	1873.104980
1591.777344	1854.442505
1590.148438	1866.231934
1588.519531	1884.103882
1586.888672	1845.669922
1585.259766	1907.654907
1583.628906	1863.148193
1581.998047	1881.005371
1580.367188	1844.124146
1578.734375	1942.536621
1577.103516	1920.854370
1575.470703	1849.042725
1573.837891	1872.959717
1572.205078	1855.861450
1570.572266	1840.288574
1568.937500	1861.155884
1567.304688	1850.141479
1565.669922	1883.137207
1564.035156	1822.057739
1562.400391	1824.709351
1560.765625	1853.139893
1559.128906	1867.912964
1557.492188	1785.665527
1555.857422	1888.346924
1554.220703	1834.918457
1552.582031	1849.682495
1550.945313	1837.177856
1549.308594	1821.649902
1547.669922	1781.905273
1546.031250	1755.799805
1544.392578	1796.290527
1542.753906	1827.686279
1541.113281	1816.713989
1539.474609	1775.499146
1537.833984	1710.109009
1536.193359	1764.171753
1534.552734	1775.892578
1532.910156	1758.897827
1531.269531	1794.786743
1529.626953	1780.815796
1527.986328	1753.259521
1526.343750	1820.832764
1524.699219	1708.747681
1523.056641	1688.769409
1521.412109	1745.751343
1519.769531	1736.333252
1518.125000	1669.606445
1516.480469	1697.905884
1514.835938	1724.685669
1513.189453	1727.337769
1511.544922	1695.328491
1509.898438	1720.584961
1508.251953	1593.692017
1506.605469	1676.187378
1504.957031	1722.511353
1503.310547	1667.955688
1501.662109	1706.736328
1500.013672	1677.787354
1498.365234	1674.425537
1496.716797	1728.221313
1495.068359	1654.171875
1493.417969	1689.907227
1491.769531	1688.048462
1490.119141	1666.653442
1488.468750	1682.830566
1486.816406	1640.414429
1485.166016	1661.095703
1483.513672	1630.714478
1481.861328	1669.404053
1480.208984	1606.012817
1478.556641	1689.709961
1476.904297	1587.332764
1475.250000	1643.998535
1473.597656	1621.156982
1471.943359	1677.791504
1470.289063	1635.464722
1468.634766	1627.626465
1466.978516	1645.264648
1465.324219	1650.910400
1463.667969	1619.109009
1462.011719	1624.757690
1460.355469	1557.043213
1458.699219	1601.620239
1457.041016	1598.289673
1455.382813	1548.577759
1453.726563	1600.607666
1452.068359	1571.854248
1450.408203	1505.731201
1448.750000	1503.918701
1447.089844	1593.279541
1445.431641	1555.585571
1443.771484	1601.571533
1442.111328	1537.005127
1440.451172	1579.988770
1438.789063	1594.585938
1437.126953	1559.916504
1435.466797	1623.761719
1433.804688	1535.384399
1432.142578	1585.781494
1430.478516	1519.821533
1428.816406	1546.341797
1427.152344	1572.850708
1425.488281	1590.405151
1423.824219	1578.147583
1422.160156	1504.808716
1420.494141	1559.606079
1418.830078	1483.323364
1417.164063	1526.190063
1415.498047	1539.265625
1413.832031	1491.313721
1412.166016	1556.471558
1410.498047	1501.097534
1408.830078	1503.755249
1407.164063	1510.872803
1405.494141	1442.162354
1403.826172	1496.856201
1402.158203	1502.484375
1400.488281	1494.737671
1398.818359	1494.421753
1397.150391	1556.484009
1395.478516	1450.728394
1393.808594	1497.927734
1392.138672	1530.264526
1390.466797	1475.035156
1388.794922	1504.395752
1387.123047	1468.478027
1385.451172	1484.480347
1383.777344	1450.064575
1382.105469	1495.711304
1380.431641	1471.681885
1378.757813	1487.669678
1377.083984	1459.207642
1375.410156	1510.737915
1373.734375	1423.050781
1372.060547	1427.191040
1370.384766	1423.928467
1368.708984	1478.381958
1367.033203	1415.927856
1365.355469	1386.043335
1363.679688	1440.469971
1362.001953	1376.584717
1360.324219	1420.641968
1358.646484	1439.554810
1356.968750	1400.830444
1355.289063	1407.920532
1353.609375	1407.622192
1351.931641	1438.335327
1350.250000	1446.888916
1348.570313	1381.633789
1346.890625	1345.921875
1345.208984	1394.327393
1343.529297	1457.463989
1341.847656	1445.356201
1340.164063	1411.135254
1338.482422	1459.485596
1336.800781	1373.689087
1335.117188	1345.399292
1333.433594	1359.846802
1331.750000	1390.490967
1330.066406	1441.739258
1328.382813	1366.343384
1326.697266	1348.389038
1325.011719	1399.613403
1323.326172	1324.274170
1321.640625	1360.770752
1319.955078	1306.062744
1318.267578	1338.135986
1316.582031	1342.262451
1314.894531	1361.085693
1313.207031	1350.509888
1311.517578	1331.123169
1309.830078	1314.682373
1308.140625	1315.871826
1306.453125	1308.250854
1304.763672	1331.460693
1303.072266	1313.565796
1301.382813	1330.895142
1299.693359	1239.655396
1298.001953	1318.595825
1296.310547	1324.181274
1294.619141	1257.924805
1292.927734	1282.576172
1291.234375	1298.423950
1289.542969	1304.008667
1287.849609	1321.309814
1286.156250	1334.209961
1284.462891	1266.571045
1282.767578	1304.364014
1281.074219	1254.323486
1279.378906	1284.786255
1277.683594	1306.458008
1275.988281	1249.135254
1274.292969	1301.515137
1272.595703	1258.838379
1270.900391	1204.485596
1269.203125	1309.453247
1267.505859	1262.418335
1265.808594	1295.748657
1264.109375	1305.696411
1262.412109	1279.134888
1260.712891	1240.905518
1259.013672	1262.535034
1257.314453	1203.895508
1255.613281	1292.635620
1253.914063	1279.232544
1252.212891	1258.543335
1250.511719	1293.267944
1248.810547	1284.246216
1247.109375	1297.089355
1245.408203	1264.756958
1243.705078	1249.919678
1242.001953	1271.500488
1240.298828	1214.439209
1238.595703	1246.209106
1236.892578	1238.665771
1235.187500	1187.468750
1233.482422	1223.588623
1231.777344	1200.054077
1230.072266	1201.252441
1228.367188	1200.996338
1226.662109	1238.536011
1224.955078	1222.284790
1223.248047	1166.807861
1221.541016	1185.444702
1219.833984	1221.502930
1218.125000	1200.912476
1216.417969	1194.848999
1214.708984	1203.303223
1213.000000	1152.254395
1211.291016	1179.575439
1209.580078	1092.288696
1207.871094	1164.569214
1206.160156	1197.669922
1204.449219	1140.877686
1202.738281	1184.114502
1201.027344	1162.126099
1199.314453	1150.288208
1197.603516	1200.737183
1195.890625	1126.627319
1194.177734	1126.386719
1192.464844	1172.465698
1190.750000	1151.954712
1189.037109	1131.452515
1187.322266	1147.122925
1185.607422	1109.275269
1183.892578	1126.389526
1182.177734	1137.713867
1180.460938	1166.377319
1178.744141	1143.007690
1177.027344	1142.763428
1175.310547	1091.965210
1173.593750	1150.939331
1171.876953	1130.480347
1170.158203	1127.351685
1168.439453	1089.588379
1166.720703	1142.740967
1165.001953	1107.875488
1163.281250	1150.905640
1161.562500	1129.030518
1159.841797	1135.997070
1158.121094	1082.425415
1156.400391	1109.572876
1154.677734	1102.131958
1152.957031	1032.757568
1151.234375	1116.061035
1149.511719	1125.900513
1147.789063	1096.870361
1146.066406	1106.709595
1144.341797	1152.515625
1142.619141	1084.657593
1140.894531	1085.863647
1139.169922	1102.886108
1137.445313	1118.463623
1135.718750	1057.857178
1133.994141	1053.319580
1132.267578	1061.714111
1130.541016	1041.377319
1128.814453	1104.341431
1127.085938	1059.596069
1125.359375	1088.078125
1123.630859	1054.836426
1121.902344	1130.657104
1120.173828	1071.598755
1118.443359	1068.500488
1116.714844	1114.156982
1114.984375	1010.697815
1113.253906	1013.347717
1111.523438	991.635437
1109.792969	1032.970825
1108.060547	1071.423584
1106.330078	999.589966
1104.597656	1058.078125
1102.865234	1037.810547
1101.132813	1020.414063
1099.398438	1017.333374
1097.666016	958.462830
1095.931641	994.013000
1094.197266	1063.866089
1092.462891	1047.911865
1090.726563	1051.974854
1088.992188	1053.178101
1087.255859	1030.092773
1085.519531	991.304932
1083.783203	973.955017
1082.046875	968.034729
1080.308594	1004.941101
1078.570313	991.880737
1076.833984	1031.619751
1075.093750	970.056274
1073.355469	981.257874
1071.617188	933.990967
1069.876953	1007.923218
1068.136719	964.946777
1066.396484	954.764221
1064.656250	961.682556
1062.914063	961.475830
1061.173828	958.420959
1059.431641	992.385986
1057.689453	979.361145
1055.947266	932.185486
1054.203125	978.940002
1052.460938	964.503723
1050.716797	977.096619
1048.972656	939.915466
1047.228516	963.881409
1045.484375	953.724548
1043.738281	1007.518982
1041.992188	984.570374
1040.246094	927.541260
1038.500000	979.886230
1036.753906	993.873535
1035.005859	1020.630310
1033.259766	1020.410583
1031.511719	1004.582947
1029.763672	1012.878235
1028.015625	1058.045410
1026.265625	1005.352112
1024.515625	1000.882507
1022.767578	1009.171204
1021.015625	1013.205017
1019.265625	1007.319641
1017.515625	1021.267212
1015.763672	1074.861084
1014.011719	1030.738037
1012.259766	1068.735596
1010.507813	1081.242432
1008.755859	1052.710693
1007.001953	1099.166504
1005.248047	1096.100952
1003.494141	1090.208496
1001.740234	1118.247681
999.986328	1133.554077
998.230469	1136.135864
996.476563	1200.879517
994.720703	1207.682983
992.962891	1200.361572
991.207031	1267.873047
989.451172	1336.766968
987.693359	1440.912964
985.935547	1392.629028
984.177734	1430.416504
982.419922	1421.645508
980.660156	1383.267090
978.900391	1456.275757
977.140625	1478.512573
975.380859	1461.283569
973.621094	1415.885132
971.861328	1419.804932
970.099609	1429.355957
968.337891	1410.744263
966.576172	1441.407227
964.814453	1439.688477
963.050781	1416.865234
961.289063	1357.477173
959.525391	1395.156860
957.761719	1399.073730
955.998047	1438.133789
954.232422	1383.008545
952.466797	1360.226563
950.703125	1371.171631
948.937500	1325.928467
947.169922	1440.792969
945.404297	1444.693359
943.636719	1426.133179
941.871094	1424.421387
940.103516	1410.082642
938.335938	1307.375854
936.566406	1277.641357
934.798828	1179.213989
933.029297	1149.519897
931.259766	1122.641724
929.490234	1039.725220
927.718750	1053.509644
925.949219	1025.268799
924.177734	963.432068
922.406250	952.023254
920.634766	936.420105
918.863281	933.418457
917.089844	926.220764
915.316406	970.782471
913.542969	899.247742
911.769531	938.203064
909.996094	879.287476
908.220703	925.218140
906.447266	895.674255
904.671875	898.274231
902.896484	858.971924
901.119141	868.560547
899.343750	880.937195
897.566406	884.933655
895.789063	904.278748
894.011719	887.340393
892.234375	909.466248
890.455078	815.831909
888.677734	846.329224
886.898438	860.085449
885.119141	851.536865
883.337891	868.072693
881.558594	867.884399
879.777344	866.303345
877.996094	889.787415
876.214844	847.829346
874.433594	876.874512
872.650391	814.063965
870.869141	850.060059
869.085938	877.694702
867.302734	816.315308
865.519531	845.335571
863.734375	916.044739
861.951172	864.425049
860.166016	858.679565
858.380859	875.162842
856.593750	859.695496
854.808594	866.451477
853.021484	896.804626
851.234375	868.850952
849.447266	872.825134
847.660156	831.015381
845.873047	821.125549
844.083984	829.267517
842.294922	838.792297
840.505859	866.332642
838.716797	817.640259
836.925781	835.474365
835.136719	879.620056
833.345703	836.496094
831.554688	886.160706
829.763672	891.505310
827.970703	902.383606
826.179688	893.885010
824.386719	958.711426
822.593750	934.989807
820.798828	1019.138367
819.005859	945.643127
817.210938	923.321899
815.417969	921.739014
813.621094	942.262695
811.826172	867.466492
810.031250	878.325806
808.234375	889.180298
806.437500	901.410461
804.640625	846.009644
802.843750	913.436279
801.046875	882.888062
799.248047	904.763184
797.449219	896.292664
795.650391	902.990479
793.851563	868.335999
792.050781	917.755188
790.251953	976.796753
788.451172	940.771240
786.650391	988.765076
784.849609	949.998901
783.046875	974.569031
781.244141	1044.543335
779.443359	971.392334
777.640625	1008.322021
775.835938	961.341675
774.033203	968.007080
772.228516	970.545410
770.423828	975.831360
768.619141	976.992615
766.814453	953.424744
765.009766	972.445862
763.203125	996.951538
761.396484	988.496521
759.589844	997.889099
757.783203	972.969666
755.974609	1005.685669
754.167969	1020.554993
752.359375	1003.875244
750.550781	1020.109436
748.740234	969.166565
746.931641	947.026672
745.121094	1000.258362
743.310547	1002.779724
741.500000	949.145630
739.689453	927.029175
737.876953	906.291382
736.066406	945.786255
734.253906	918.211182
732.441406	857.813171
730.626953	858.993530
728.814453	838.292908
727.000000	899.634888
725.185547	858.430420
723.371094	874.642273
721.556641	863.520447
719.740234	866.063721
717.925781	804.416382
716.109375	787.855225
714.291016	789.048096
712.474609	799.794189
710.658203	749.131348
708.839844	808.994019
707.021484	807.453064
705.203125	790.912720
703.382813	818.006531
701.564453	804.197021
699.744141	779.491577
697.923828	767.058899
696.103516	783.236816
694.283203	759.913879
692.460938	737.962646
690.638672	743.246094
688.816406	753.971008
686.994141	741.559937
685.171875	790.370544
683.347656	753.475708
681.523438	783.225525
679.699219	796.648621
677.875000	810.065796
676.050781	750.097900
674.224609	811.069397
672.398438	766.068481
670.572266	788.986267
668.746094	783.382568
666.917969	753.348389
665.091797	739.612366
663.263672	770.656372
661.435547	739.288086
659.607422	737.769775
657.777344	726.760803
655.947266	714.401001
654.119141	763.035217
652.287109	714.087646
650.457031	743.734558
648.626953	769.305176
646.794922	761.011658
644.962891	756.783203
643.130859	793.162170
641.298828	802.460632
639.464844	832.048828
637.630859	830.513550
635.796875	862.787170
633.962891	885.582275
632.128906	878.629150
630.292969	901.410706
628.458984	976.876770
626.623047	971.258789
624.785156	952.137756
622.949219	968.131653
621.111328	1036.766724
619.275391	1044.636841
617.437500	1041.708618
615.597656	1022.592773
613.759766	992.695068
611.919922	956.068054
610.080078	963.946960
608.240234	966.430786
606.400391	999.907959
604.560547	966.005859
602.718750	967.140442
600.876953	949.420715
599.035156	993.643127
597.193359	1048.614746
595.349609	1024.159546
593.507813	1030.661865
591.664063	1049.268066
589.820313	1058.451660
587.974609	1068.975708
586.130859	1078.150757
584.285156	1064.473145
582.439453	1073.645020
580.593750	1043.852905
578.748047	1016.760254
576.900391	1059.507568
575.052734	1071.357178
573.205078	1013.404236
571.357422	1061.491699
569.509766	1061.257813
567.660156	1063.706787
565.810547	1111.751221
563.960938	1028.377930
562.111328	1040.215698
560.259766	1085.552856
558.410156	1081.293945
556.558594	1014.075806
554.707031	1023.227417
552.855469	1000.238708
551.001953	1010.727905
549.148438	1061.364868
547.294922	998.239136
545.441406	995.343384
543.587891	965.698181
541.732422	1002.927795
539.878906	1020.086853
538.023438	1088.030884
536.167969	1161.290161
534.310547	1194.435425
532.455078	1309.047363
530.597656	1498.395020
528.740234	1850.550049
526.882813	2815.258789
525.023438	5307.640137
523.166016	11844.485352
521.306641	19253.544922
519.447266	17460.802734
517.585938	8488.459961
515.726563	3822.029785
513.865234	2215.141357
512.003906	1645.665161
510.142578	1328.231323
508.281250	1181.425171
506.417969	1073.301392
504.556641	1025.135864
502.693359	963.680908
500.828125	923.545288
498.964844	912.697449
497.101563	849.977783
495.236328	821.862549
493.371094	823.010437
491.505859	816.182007
489.638672	737.591003
487.771484	764.001831
485.906250	798.371399
484.039063	780.929382
482.169922	747.561218
480.302734	793.859192
478.433594	769.793396
476.564453	784.219421
474.695313	773.432739
472.826172	790.504089
470.955078	778.394653
469.083984	843.184692
467.212891	849.625427
465.341797	797.755493
463.470703	785.654968
461.597656	925.887390
459.724609	945.546753
457.851563	993.001465
455.978516	1020.579407
454.105469	1103.728516
452.230469	1144.500854
450.355469	1173.349487
448.480469	1200.862793
446.605469	1248.197510
444.728516	1304.764771
442.851563	1296.545654
440.976563	1300.222412
439.097656	1331.639893
437.220703	1337.948608
435.341797	1354.818237
433.464844	1308.311157
431.585938	1322.539917
429.705078	1330.164307
427.826172	1315.356812
425.945313	1390.249390
424.064453	1289.717529
422.183594	1338.213623
420.302734	1344.507446
418.421875	1431.187378
416.539063	1457.220947
414.656250	1575.451538
412.773438	1784.500977
410.888672	2111.958740
409.005859	2720.978760
407.121094	3975.932129
405.236328	5265.854980
403.351563	6261.845215
401.464844	6248.617676
399.580078	5326.779297
397.693359	3901.843750
395.806641	2710.180176
393.917969	2034.154663
392.031250	1769.636719
390.142578	2042.445190
388.253906	3334.158203
386.365234	5255.482422
384.476563	5260.877441
382.585938	3207.267090
380.695313	1851.247070
378.804688	1459.943237
376.914063	1354.704468
375.023438	1267.868286
373.130859	1237.437012
371.238281	1161.149658
369.345703	1193.647949
367.453125	1085.964966
365.558594	1063.458862
363.666016	1021.321899
361.771484	1030.258301
359.875000	975.059326
357.980469	1008.863647
356.083984	940.611572
354.189453	945.633972
352.292969	906.194275
350.394531	950.442383
348.498047	916.247314
346.599609	853.318542
344.701172	877.951538
342.802734	907.798279
340.904297	876.254639
339.003906	846.030579
337.105469	865.421814
335.205078	823.468384
333.302734	807.628113
331.402344	825.710327
329.500000	834.655396
327.597656	760.149414
325.695313	823.854858
323.792969	805.425293
321.890625	826.093567
319.986328	816.790527
318.082031	816.608398
316.177734	824.239014
314.271484	787.604126
312.367188	787.428467
310.460938	830.193909
308.554688	876.843079
306.648438	840.228882
304.740234	894.657104
302.833984	872.356079
300.925781	895.557678
299.017578	829.083130
297.107422	822.402039
295.199219	818.321716
293.289063	767.492310
291.378906	754.337524
289.468750	763.255493
287.556641	751.405212
285.646484	787.566650
283.734375	830.197876
281.822266	766.464600
279.910156	744.251099
277.996094	731.121704
276.082031	730.958374
274.167969	755.414063
272.253906	722.859070
270.339844	740.829712
268.423828	725.125732
266.507813	749.560669
264.591797	727.390198
262.675781	740.167603
260.759766	721.890137
258.841797	699.740601
256.923828	712.515442
255.005859	744.677124
253.085938	710.904175
251.167969	774.066101
249.248047	729.965820
247.328125	710.427185
245.408203	687.023132
243.486328	706.236023
241.566406	721.567810
239.644531	711.082031
237.722656	774.144714
235.798828	717.213501
233.876953	737.687561
231.953125	796.833679
230.029297	768.295349
228.105469	747.502563
226.179688	756.354675
224.253906	805.137695
222.330078	765.031433
220.402344	746.833069
218.476563	778.849609
216.550781	772.239746
214.623047	823.537842
212.695313	801.482971
210.767578	841.175598
208.837891	820.412415
206.908203	775.231689
204.980469	852.178101
203.048828	854.557129
201.119141	860.789307
199.189453	818.208679
197.257813	776.931335
195.326172	860.210327
193.394531	771.448425
191.460938	793.091797
189.529297	769.819275
187.595703	768.363831
185.662109	795.122986
183.726563	824.434448
181.792969	797.329895
179.857422	765.111145
177.921875	780.315063
175.986328	771.172729
174.048828	749.227173
172.113281	781.070007
170.175781	779.614502
168.238281	729.524536
166.298828	790.780579
164.361328	771.413513
162.421875	772.519226
160.482422	745.492615
158.542969	801.576050
156.601563	774.554932
154.662109	787.159424
152.720703	784.427429
150.779297	757.428162
148.835938	753.426941
146.894531	767.301331
144.951172	728.836182
143.007813	743.985962
141.064453	720.853394
139.119141	696.455627
137.175781	698.849548
135.230469	698.692383
133.285156	722.754456
131.337891	685.633911
129.392578	691.850281
127.445313	701.885315
125.498047	671.162109
123.550781	683.743713
121.601563	659.403198
119.652344	647.800537
117.705078	680.737244
115.753906	623.338623
113.804688	637.188416
111.853516	609.070923
109.904297	558.083313
107.953125	503.305756
106.000000	378.664978
104.048828	332.845215
